Size (bp),Intensity
0.58,2120.46
1.00,1699.64
2.00,1094.36
2.42,585.24
2.84,284.11
3.26,149.13
3.68,100.23
4.10,85.92
4.52,84.22
4.94,85.18
5.36,86.13
5.79,86.92
6.21,84.57
6.63,78.77
7.05,70.00
7.47,59.50
7.89,48.79
8.31,38.98
8.73,30.94
9.15,25.58
9.57,23.00
9.99,22.21
10.41,22.08
10.83,22.02
11.25,21.48
11.67,19.98
12.09,18.04
12.52,16.52
12.94,15.06
13.36,14.23
13.78,13.40
14.20,12.49
14.62,12.41
15.04,12.03
15.46,11.45
15.88,11.65
16.30,12.38
16.72,12.78
17.14,12.99
17.56,13.46
17.98,13.75
18.40,13.31
18.82,12.10
19.24,10.40
19.67,9.05
20.09,8.83
20.51,8.87
20.93,7.98
21.35,6.66
21.77,6.33
22.19,6.00
22.61,6.17
23.03,6.82
23.45,7.32
23.87,7.20
24.29,7.03
24.71,7.52
25.13,8.44
25.55,8.94
25.97,8.62
26.39,8.06
26.82,7.97
27.24,7.89
27.66,6.78
28.08,5.23
28.50,4.96
28.92,6.28
29.34,8.08
29.76,9.45
30.18,9.77
30.60,10.08
31.02,10.05
31.44,9.62
31.86,9.10
32.28,9.04
32.70,9.91
33.12,11.30
33.55,12.04
33.97,11.18
34.39,8.69
34.81,6.08
35.23,5.54
35.65,7.51
36.07,10.02
36.49,11.34
36.91,11.56
37.33,11.46
37.75,11.47
38.17,11.55
38.59,11.62
39.01,11.87
39.43,12.54
39.85,14.19
40.27,16.42
40.70,17.98
41.12,18.76
41.54,19.69
41.96,20.66
42.38,20.42
42.80,18.49
43.22,16.02
43.64,14.55
44.06,14.26
44.48,14.26
44.90,14.13
45.32,14.13
45.74,14.36
46.16,14.71
46.58,14.79
47.00,14.87
47.42,14.17
47.85,12.33
48.27,9.82
48.69,7.51
49.11,6.14
49.53,6.17
49.95,7.18
50.37,8.16
50.79,8.60
51.21,8.80
51.63,8.86
52.05,7.98
52.47,5.85
52.89,3.78
53.31,3.07
53.73,3.63
54.15,4.85
54.58,6.03
55.00,6.18
55.42,6.33
55.84,5.38
56.26,3.85
56.68,3.03
57.10,3.69
57.52,4.81
57.94,4.87
58.36,4.00
58.78,3.69
59.20,4.70
59.62,6.35
60.04,7.53
60.46,8.12
60.88,8.67
61.30,8.99
61.73,8.53
62.15,7.59
62.57,7.07
62.99,7.41
63.41,7.66
63.83,7.91
64.25,7.47
64.67,6.42
65.09,6.10
65.51,6.66
65.93,7.05
66.35,6.78
66.77,6.38
67.19,6.50
67.61,7.30
68.03,8.56
68.45,9.59
68.88,9.57
69.30,9.02
69.72,9.04
70.14,9.12
70.56,8.29
70.98,7.30
71.40,7.01
71.82,7.10
72.24,7.18
72.66,7.85
73.08,9.13
73.50,10.15
73.92,10.32
74.34,10.05
74.76,9.63
75.18,8.75
75.61,7.46
76.03,6.59
76.45,6.71
76.87,7.00
77.29,6.14
77.71,4.37
78.13,3.27
78.55,3.88
78.97,5.90
79.39,8.04
79.81,8.83
80.23,8.43
80.65,8.03
81.07,6.81
81.49,6.48
81.91,7.24
82.33,8.05
82.76,7.98
83.18,7.32
83.60,6.69
84.02,6.49
84.44,7.14
84.86,8.49
85.28,9.52
85.70,9.49
86.12,8.69
86.54,7.96
86.96,7.93
87.38,8.39
87.80,8.66
88.22,8.60
88.64,8.70
89.06,8.80
89.48,9.18
89.91,9.02
90.33,8.32
90.75,7.49
91.17,6.66
91.59,6.47
92.01,7.42
92.43,8.43
92.85,8.30
93.27,7.72
93.69,7.76
94.11,7.99
94.53,7.71
94.95,6.99
95.37,6.01
95.79,5.18
96.21,5.05
96.64,5.55
97.06,5.82
97.48,6.09
97.90,6.18
98.32,5.72
98.74,5.36
99.16,5.72
99.58,6.57
100.00,7.51
101.00,8.00
101.52,7.51
102.04,6.81
102.56,7.26
103.08,8.64
103.61,9.72
104.13,9.89
104.65,9.23
105.17,8.05
105.69,6.75
106.21,5.81
106.73,5.77
107.25,6.12
107.77,6.47
108.29,6.86
108.82,6.42
109.34,5.79
109.86,5.71
110.38,6.31
110.90,7.42
111.42,8.63
111.94,9.32
112.46,8.74
112.98,6.84
113.51,5.06
114.03,4.99
114.55,6.56
115.07,8.47
115.59,9.37
116.11,8.57
116.63,7.00
117.15,6.92
117.67,6.84
118.19,8.43
118.72,9.29
119.24,7.82
119.76,5.58
120.28,4.57
120.80,4.68
121.32,3.96
121.84,0.53
122.36,-4.75
122.88,-8.59
123.41,-9.61
123.93,-9.95
124.45,-11.28
124.97,-12.68
125.49,-13.07
126.01,-12.76
126.53,-12.55
127.05,-12.77
127.57,-12.90
128.09,-13.03
128.62,-13.15
129.14,-13.63
129.66,-13.99
130.18,-13.39
130.70,-12.58
131.22,-12.52
131.74,-12.40
132.26,-11.45
132.78,-10.56
133.31,-10.70
133.83,-11.57
134.35,-12.48
134.87,-13.04
135.39,-12.80
135.91,-12.10
136.43,-12.34
136.95,-13.53
137.47,-14.08
137.99,-13.91
138.52,-13.74
139.04,-13.90
139.56,-14.92
140.08,-15.58
140.60,-15.13
141.12,-14.27
141.64,-13.95
142.16,-14.16
142.68,-14.27
143.21,-13.87
143.73,-13.14
144.25,-12.72
144.77,-13.16
145.29,-14.30
145.81,-15.15
146.33,-15.08
146.85,-14.80
147.37,-15.02
147.89,-15.31
148.42,-15.19
148.94,-15.08
149.46,-14.53
149.98,-14.11
150.50,-13.65
151.02,-12.95
151.54,-12.66
152.06,-13.13
152.58,-13.56
153.11,-13.20
153.63,-12.27
154.15,-11.32
154.67,-10.79
155.19,-10.75
155.71,-10.81
156.23,-10.68
156.75,-10.46
157.27,-10.43
157.79,-10.64
158.32,-11.16
158.84,-11.68
159.36,-12.19
159.88,-13.37
160.40,-13.76
160.92,-12.92
161.44,-11.26
161.96,-9.71
162.48,-8.83
163.01,-7.94
163.53,-6.37
164.05,-4.48
164.57,-2.76
165.09,-1.10
165.61,0.51
166.13,1.57
166.65,1.80
167.17,1.41
167.69,0.93
168.22,1.12
168.74,2.11
169.26,2.65
169.78,3.19
170.30,3.98
170.82,5.37
171.34,8.33
171.86,12.73
172.38,17.68
172.91,22.35
173.43,26.07
173.95,28.20
174.47,28.29
174.99,26.26
175.51,22.82
176.03,19.28
176.55,16.20
177.07,13.06
177.59,9.79
178.12,7.22
178.64,5.84
179.16,4.88
179.68,3.96
180.20,3.04
180.72,0.22
181.24,-2.44
181.76,-4.47
182.28,-6.18
182.81,-7.48
183.33,-8.14
183.85,-8.47
184.37,-9.04
184.89,-9.86
185.41,-10.38
185.93,-10.25
186.45,-9.45
186.97,-7.82
187.49,-5.83
188.02,-4.75
188.54,-5.21
189.06,-6.31
189.58,-6.92
190.10,-6.69
190.62,-6.46
191.14,-4.69
191.66,-2.34
192.18,-0.84
192.71,-0.60
193.23,-0.83
193.75,-1.57
194.27,-3.19
194.79,-4.52
195.31,-4.08
195.83,-2.64
196.35,-2.26
196.87,-3.13
197.39,-3.29
197.92,-1.96
198.44,-0.39
198.96,0.50
199.48,0.82
200.00,0.87
201.00,0.91
201.59,1.17
202.17,1.72
202.76,2.06
203.34,1.93
203.93,1.46
204.51,0.92
205.10,0.89
205.69,1.37
206.27,1.61
206.86,1.33
207.44,0.56
208.03,-0.76
208.62,-1.82
209.20,-1.61
209.79,-0.72
210.37,-0.49
210.96,-1.09
211.54,-2.00
212.13,-2.46
212.72,-2.92
213.30,-3.79
213.89,-4.71
214.47,-5.73
215.06,-6.58
215.64,-6.94
216.23,-6.34
216.82,-4.73
217.40,-3.47
217.99,-3.72
218.57,-4.84
219.16,-5.42
219.75,-4.89
220.33,-3.79
220.92,-2.91
221.50,-2.45
222.09,-2.33
222.67,-2.52
223.26,-2.52
223.85,-2.35
224.43,-2.17
225.02,-2.19
225.60,-2.68
226.19,-2.60
226.78,-1.64
227.36,-0.69
227.95,-0.33
228.53,-0.15
229.12,0.43
229.70,1.52
230.29,2.70
230.88,3.04
231.46,2.27
232.05,1.58
232.63,1.79
233.22,2.26
233.80,2.65
234.39,3.86
234.98,6.30
235.56,7.61
236.15,8.92
236.73,10.80
237.32,12.08
237.91,13.05
238.49,13.81
239.08,14.60
239.66,15.58
240.25,16.89
240.83,18.85
241.42,21.38
242.01,23.69
242.59,25.02
243.18,25.17
243.76,24.76
244.35,25.00
244.93,26.77
245.52,29.72
246.11,33.02
246.69,36.49
247.28,38.21
247.86,39.92
248.45,42.61
249.04,44.51
249.62,46.46
250.21,48.75
250.79,51.01
251.38,53.40
251.96,56.94
252.55,62.60
253.14,70.37
253.72,79.20
254.31,87.88
254.89,96.25
255.48,103.67
256.07,107.90
256.65,108.41
257.24,108.10
257.82,109.14
258.41,110.54
258.99,110.92
259.58,111.29
260.17,113.07
260.75,118.70
261.34,129.64
261.92,146.13
262.51,168.85
263.09,198.66
263.68,235.95
264.27,280.81
264.85,331.94
265.44,385.69
266.02,438.89
266.61,491.92
267.20,545.79
267.78,597.92
268.37,642.94
268.95,676.12
269.54,696.27
270.12,707.63
270.71,713.74
271.30,719.86
271.88,745.20
272.47,794.85
273.05,876.22
273.64,990.03
274.22,1129.64
274.81,1285.57
275.40,1451.10
275.98,1623.51
276.57,1802.54
277.15,1990.71
277.74,2197.13
278.33,2440.64
278.91,2749.70
279.50,3160.38
280.08,3718.46
280.67,4498.92
281.25,5652.98
281.84,7447.70
282.43,8818.01
283.01,10188.32
283.60,13952.83
284.18,18292.50
284.77,22201.88
285.36,24506.10
285.94,24469.33
286.53,22189.78
287.11,18477.98
287.70,14357.37
288.28,10604.30
288.87,7582.92
289.46,5328.62
290.04,3718.10
290.63,2599.35
291.21,1841.09
291.80,1338.17
292.38,1010.33
292.97,799.72
293.56,733.10
294.14,666.48
294.73,583.84
295.31,532.05
295.90,495.41
296.49,463.97
297.07,433.79
297.66,403.05
298.24,370.35
298.83,336.66
299.41,304.92
300.00,276.76
301.00,251.77
301.70,229.56
302.39,210.62
303.09,195.41
303.79,183.44
304.49,173.14
305.18,163.04
305.88,152.90
306.58,147.90
307.27,142.90
307.97,132.63
308.67,122.11
309.37,112.46
310.06,104.93
310.76,100.35
311.46,98.89
312.15,99.42
312.85,99.71
313.55,97.38
314.25,91.09
314.94,81.53
315.64,70.52
316.34,59.80
317.04,50.56
317.73,42.90
318.43,36.10
319.13,30.16
319.82,25.55
320.52,23.72
321.22,21.90
321.92,18.45
322.61,15.13
323.31,12.72
324.01,11.54
324.70,10.73
325.40,9.43
326.10,8.02
326.80,7.42
327.49,7.70
328.19,7.77
328.89,6.97
329.58,5.87
330.28,4.87
330.98,3.69
331.68,2.47
332.37,1.51
333.07,0.79
333.77,0.30
334.46,0.26
335.16,0.22
335.86,0.70
336.56,1.82
337.25,3.38
337.95,4.78
338.65,5.62
339.35,6.04
340.04,6.09
340.74,5.58
341.44,4.73
342.13,3.93
342.83,3.30
343.53,2.60
344.23,1.39
344.92,-0.02
345.62,-0.63
346.32,-0.23
347.01,0.28
347.71,0.14
348.41,-0.19
349.11,-0.52
349.80,-1.20
350.50,-1.61
351.20,-1.50
351.89,-0.79
352.59,0.04
353.29,0.22
353.99,-0.39
354.68,-1.16
355.38,-1.60
356.08,-1.95
356.77,-2.30
357.47,-2.58
358.17,-3.27
358.87,-4.22
359.56,-4.31
360.26,-3.66
360.96,-3.56
361.65,-4.31
362.35,-4.66
363.05,-5.02
363.75,-4.91
364.44,-4.05
365.14,-3.28
365.84,-3.64
366.54,-5.25
367.23,-6.80
367.93,-7.12
368.63,-6.41
369.32,-5.38
370.02,-4.54
370.72,-4.28
371.42,-4.56
372.11,-4.96
372.81,-5.24
373.51,-5.46
374.20,-5.59
374.90,-5.50
375.60,-5.19
376.30,-5.06
376.99,-4.93
377.69,-5.01
378.39,-5.25
379.08,-5.11
379.78,-4.60
380.48,-4.15
381.18,-3.83
381.87,-3.65
382.57,-3.95
383.27,-4.68
383.96,-5.17
384.66,-4.94
385.36,-4.46
386.06,-4.56
386.75,-5.25
387.45,-5.83
388.15,-5.88
388.85,-5.42
389.54,-4.55
390.24,-4.12
390.94,-3.69
391.63,-3.63
392.33,-4.60
393.03,-5.81
393.73,-6.58
394.42,-7.07
395.12,-7.17
395.82,-6.30
396.51,-4.66
397.21,-3.38
397.91,-3.40
398.61,-4.42
399.30,-5.14
400.00,-5.13
401.00,-5.45
401.72,-6.89
402.45,-8.86
403.17,-10.04
403.89,-9.81
404.61,-9.59
405.34,-8.15
406.06,-7.08
406.78,-6.54
407.50,-5.96
408.23,-5.67
408.95,-6.09
409.67,-6.89
410.39,-7.55
411.12,-7.75
411.84,-7.72
412.56,-7.97
413.28,-7.93
414.01,-6.75
414.73,-5.08
415.45,-4.14
416.18,-4.21
416.90,-4.84
417.62,-5.48
418.34,-5.65
419.07,-5.81
419.79,-5.54
420.51,-4.42
421.23,-3.36
421.96,-3.38
422.68,-3.43
423.40,-2.49
424.12,-1.97
424.85,-2.94
425.57,-4.41
426.29,-5.51
427.01,-6.06
427.74,-5.53
428.46,-3.99
429.18,-2.63
429.91,-2.18
430.63,-2.36
431.35,-2.89
432.07,-3.62
432.80,-3.92
433.52,-4.21
434.24,-4.45
434.96,-4.39
435.69,-4.44
436.41,-4.60
437.13,-4.44
437.85,-4.17
438.58,-4.33
439.30,-4.87
440.02,-5.62
440.74,-6.41
441.47,-6.63
442.19,-5.93
442.91,-5.03
443.64,-4.77
444.36,-4.74
445.08,-4.35
445.80,-4.22
446.53,-5.00
447.25,-5.50
447.97,-6.01
448.69,-6.07
449.42,-5.15
450.14,-3.81
450.86,-2.36
451.58,-1.32
452.31,-1.06
453.03,-1.44
453.75,-2.71
454.47,-4.70
455.20,-5.67
455.92,-4.80
456.64,-3.82
457.36,-4.07
458.09,-4.51
458.81,-3.95
459.53,-3.13
460.26,-3.23
460.98,-3.67
461.70,-3.42
462.42,-3.17
463.15,-1.88
463.87,-0.66
464.59,-0.07
465.31,-0.55
466.04,-1.89
466.76,-3.32
467.48,-4.31
468.20,-4.36
468.93,-3.13
469.65,-1.29
470.37,-0.02
471.09,0.05
471.82,-0.75
472.54,-1.94
473.26,-3.41
473.99,-4.65
474.71,-4.97
475.43,-4.63
476.15,-4.44
476.88,-4.26
477.60,-4.01
478.32,-3.89
479.04,-3.94
479.77,-4.21
480.49,-4.67
481.21,-4.89
481.93,-4.38
482.66,-3.60
483.38,-3.53
484.10,-4.11
484.82,-4.89
485.55,-5.91
486.27,-6.59
486.99,-5.97
487.72,-4.63
488.44,-4.13
489.16,-4.54
489.88,-4.61
490.61,-4.43
491.33,-4.25
492.05,-4.40
492.77,-4.88
493.50,-4.87
494.22,-4.27
494.94,-3.61
495.66,-3.41
496.39,-3.62
497.11,-4.00
497.83,-4.80
498.55,-5.82
499.28,-6.20
500.00,-6.13
501.00,-6.32
502.01,-6.52
503.02,-6.54
504.03,-6.69
505.04,-6.72
506.05,-6.37
507.06,-6.25
508.07,-6.14
509.08,-6.39
510.09,-6.74
511.10,-6.77
512.11,-6.39
513.12,-5.81
514.13,-5.60
515.14,-5.85
516.15,-6.12
517.16,-6.23
518.17,-6.50
519.18,-7.32
520.19,-8.62
521.20,-9.48
522.21,-9.27
523.22,-8.76
524.23,-8.63
525.24,-8.48
526.26,-8.13
527.27,-8.03
528.28,-7.93
529.29,-8.02
530.30,-8.50
531.31,-9.19
532.32,-9.49
533.33,-9.15
534.34,-8.36
535.35,-7.27
536.36,-6.57
537.37,-7.19
538.38,-8.82
539.39,-10.09
540.40,-10.53
541.41,-10.87
542.42,-11.24
543.43,-10.90
544.44,-9.78
545.45,-8.69
546.46,-8.40
547.47,-8.10
548.48,-8.00
549.49,-8.08
550.50,-8.07
551.51,-8.38
552.52,-9.53
553.53,-10.95
554.54,-11.57
555.55,-11.04
556.56,-10.08
557.57,-9.44
558.58,-9.40
559.59,-9.85
560.60,-10.36
561.61,-10.55
562.62,-10.61
563.63,-10.63
564.64,-10.25
565.65,-9.50
566.66,-9.17
567.67,-8.83
568.68,-8.18
569.69,-7.40
570.70,-6.84
571.71,-6.72
572.72,-7.19
573.73,-8.43
574.74,-9.72
575.76,-10.03
576.77,-9.44
577.78,-8.57
578.79,-7.84
579.80,-7.67
580.81,-8.01
581.82,-7.93
582.83,-7.06
583.84,-6.06
584.85,-5.49
585.86,-5.76
586.87,-6.53
587.88,-7.31
588.89,-9.19
589.90,-9.60
590.91,-8.38
591.92,-6.76
592.93,-5.81
593.94,-6.50
594.95,-8.51
595.96,-9.57
596.97,-8.66
597.98,-7.36
598.99,-7.15
600.00,-7.78
601.00,-8.64
602.18,-9.30
603.36,-9.10
604.54,-7.92
605.71,-6.70
606.89,-6.17
608.07,-6.04
609.25,-5.90
610.43,-5.46
611.61,-5.20
612.79,-5.19
613.96,-5.26
615.14,-5.56
616.32,-5.89
617.50,-5.85
618.68,-5.83
619.86,-6.40
621.04,-7.20
622.21,-7.56
623.39,-7.27
624.57,-6.45
625.75,-5.47
626.93,-4.83
628.11,-4.79
629.29,-5.45
630.46,-6.61
631.64,-7.08
632.82,-7.56
634.00,-8.02
635.18,-8.35
636.36,-8.76
637.54,-9.06
638.71,-8.97
639.89,-8.26
641.07,-7.03
642.25,-5.84
643.43,-5.08
644.61,-4.68
645.79,-4.64
646.96,-4.92
648.14,-5.27
649.32,-5.41
650.50,-5.15
651.68,-4.62
652.86,-4.20
654.04,-3.85
655.21,-3.73
656.39,-3.60
657.57,-4.00
658.75,-4.85
659.93,-5.13
661.11,-4.56
662.29,-3.92
663.46,-3.91
664.64,-4.19
665.82,-3.99
667.00,-3.29
668.18,-2.78
669.36,-2.58
670.54,-2.20
671.71,-1.86
672.89,-2.27
674.07,-2.94
675.25,-2.73
676.43,-1.67
677.61,-0.81
678.79,-0.63
679.96,-0.44
681.14,-0.05
682.32,0.18
683.50,-0.19
684.68,-0.75
685.86,-1.05
687.04,-1.24
688.21,-1.45
689.39,-1.28
690.57,-0.55
691.75,0.02
692.93,-0.26
694.11,-0.99
695.29,-1.26
696.46,-0.88
697.64,-0.37
698.82,0.08
700.00,0.87
701.00,1.79
702.98,1.82
704.96,1.85
706.94,1.30
708.92,1.48
710.90,2.35
712.88,2.83
714.86,2.84
716.84,2.51
718.82,1.38
720.80,-0.04
722.78,-0.56
724.76,-0.16
726.74,0.23
728.72,0.19
730.70,0.19
732.68,0.45
734.66,0.27
736.64,-0.81
738.62,-2.00
740.60,-2.18
742.58,-2.36
744.56,-1.90
746.54,-1.04
748.52,-0.48
750.50,-1.05
752.48,-2.57
754.46,-3.95
756.44,-4.64
758.42,-4.84
760.40,-4.65
762.38,-3.88
764.36,-2.82
766.34,-2.03
768.32,-1.71
770.30,-2.18
772.28,-3.98
774.26,-6.30
776.24,-7.19
778.22,-6.10
780.20,-5.23
782.18,-4.36
784.16,-3.23
786.14,-2.86
788.12,-2.90
790.10,-3.28
792.08,-3.81
794.06,-3.80
796.04,-2.83
798.02,-1.60
800.00,-1.22
801.00,-1.92
803.36,-2.96
805.71,-3.42
808.07,-3.04
810.43,-2.45
812.79,-2.41
815.14,-3.01
817.50,-3.89
819.86,-4.70
822.21,-4.92
824.57,-5.15
826.93,-5.04
829.29,-4.42
831.64,-3.55
834.00,-3.07
836.36,-3.37
838.71,-3.90
841.07,-4.13
843.43,-4.44
845.79,-5.29
848.14,-6.07
850.50,-5.83
852.86,-4.69
855.21,-3.88
857.57,-4.20
859.93,-5.42
862.29,-6.66
864.64,-7.01
867.00,-6.59
869.36,-6.40
871.71,-6.22
874.07,-5.94
876.43,-5.33
878.79,-4.70
881.14,-4.64
883.50,-5.30
885.86,-6.52
888.21,-7.98
890.57,-9.28
892.93,-10.11
895.29,-10.07
897.64,-9.02
900.00,-7.45
901.00,-5.84
904.67,-4.65
908.33,-4.49
912.00,-5.48
915.67,-6.73
919.33,-7.52
923.00,-7.66
926.67,-7.80
930.33,-7.64
934.00,-7.08
937.67,-6.47
941.33,-6.21
945.00,-6.45
948.67,-6.78
952.33,-6.53
956.00,-5.88
959.67,-5.34
963.33,-4.58
967.00,-3.55
970.67,-3.18
974.33,-3.78
978.00,-4.65
981.67,-5.24
985.33,-5.24
989.00,-4.65
992.67,-4.19
996.33,-4.34
1000.00,-4.49
1001.00,-4.97
1006.10,-5.10
1011.21,-5.31
1016.31,-5.44
1021.41,-4.77
1026.51,-3.95
1031.62,-4.36
1036.72,-6.08
1041.82,-7.69
1046.92,-7.87
1052.03,-6.90
1057.13,-5.98
1062.23,-5.35
1067.33,-4.71
1072.44,-4.53
1077.54,-5.23
1082.64,-6.36
1087.74,-7.05
1092.85,-6.92
1097.95,-6.78
1103.05,-5.80
1108.15,-4.83
1113.26,-4.02
1118.36,-3.29
1123.46,-3.17
1128.56,-3.92
1133.67,-4.96
1138.77,-5.73
1143.87,-6.17
1148.97,-6.42
1154.08,-6.49
1159.18,-5.93
1164.28,-4.62
1169.38,-3.53
1174.49,-3.54
1179.59,-4.20
1184.69,-4.68
1189.79,-4.92
1194.90,-4.98
1200.00,-5.04
1201.00,-4.76
1210.06,-4.12
1219.12,-3.56
1228.18,-3.21
1237.24,-3.04
1246.30,-3.18
1255.36,-3.67
1264.42,-4.33
1273.48,-4.84
1282.55,-5.06
1291.61,-5.05
1300.67,-4.74
1309.73,-4.48
1318.79,-4.87
1327.85,-5.76
1336.91,-6.50
1345.97,-6.83
1355.03,-6.81
1364.09,-6.64
1373.15,-6.47
1382.21,-5.97
1391.27,-5.79
1400.33,-6.37
1409.39,-7.11
1418.45,-7.03
1427.52,-6.63
1436.58,-6.57
1445.64,-6.29
1454.70,-5.94
1463.76,-6.66
1472.82,-8.07
1481.88,-8.32
1490.94,-6.75
1500.00,-4.46
1501.00,-2.87
1510.24,-2.54
1519.48,-2.91
1528.72,-3.00
1537.96,-3.10
1547.20,-3.26
1556.44,-4.03
1565.69,-4.98
1574.93,-5.03
1584.17,-4.19
1593.41,-3.73
1602.65,-4.40
1611.89,-5.38
1621.13,-5.26
1630.37,-3.93
1639.61,-2.73
1648.85,-2.61
1658.09,-2.96
1667.33,-2.88
1676.57,-2.69
1685.81,-3.05
1695.06,-3.76
1704.30,-4.10
1713.54,-4.01
1722.78,-3.92
1732.02,-3.58
1741.26,-3.46
1750.50,-3.62
1759.74,-3.79
1768.98,-3.59
1778.22,-3.07
1787.46,-3.02
1796.70,-3.92
1805.94,-4.67
1815.19,-4.05
1824.43,-2.63
1833.67,-1.84
1842.91,-1.91
1852.15,-2.05
1861.39,-1.65
1870.63,-0.76
1879.87,-0.05
1889.11,-0.02
1898.35,-0.30
1907.59,-0.58
1916.83,-1.39
1926.07,-2.06
1935.31,-2.21
1944.56,-1.80
1953.80,-1.62
1963.04,-2.17
1972.28,-2.61
1981.52,-1.76
1990.76,-0.01
2000.00,0.89
2001.00,0.26
2018.22,-0.86
2035.45,-1.43
2052.67,-1.26
2069.90,-0.77
2087.12,-0.47
2104.34,-0.38
2121.57,-0.03
2138.79,0.20
2156.02,0.42
2173.24,0.23
2190.47,-0.57
2207.69,-1.21
2224.91,-1.14
2242.14,-0.32
2259.36,0.54
2276.59,0.51
2293.81,-0.28
2311.03,-0.74
2328.26,-0.12
2345.48,1.30
2362.71,2.52
2379.93,2.61
2397.16,1.20
2414.38,-1.15
2431.60,-2.94
2448.83,-2.97
2466.05,-1.41
2483.28,-0.44
2500.50,0.54
2517.72,1.55
2534.95,1.34
2552.17,0.78
2569.40,0.35
2586.62,-0.22
2603.84,-0.84
2621.07,-1.13
2638.29,-1.26
2655.52,-1.65
2672.74,-2.05
2689.97,-1.85
2707.19,-1.20
2724.41,-0.81
2741.64,-1.12
2758.86,-1.99
2776.09,-2.52
2793.31,-2.01
2810.53,-1.28
2827.76,-1.49
2844.98,-1.71
2862.21,-2.99
2879.43,-3.54
2896.66,-2.70
2913.88,-1.24
2931.10,-0.13
2948.33,0.02
2965.55,-0.61
2982.78,-1.06
3000.00,-0.83
3001.00,-0.02
3025.99,1.36
3050.98,2.75
3075.98,3.28
3100.97,3.38
3125.96,3.80
3150.95,4.06
3175.94,3.71
3200.93,3.05
3225.93,2.64
3250.92,2.22
3275.91,1.47
3300.90,1.43
3325.89,1.87
3350.88,1.77
3375.87,1.39
3400.87,1.95
3425.86,3.31
3450.85,4.22
3475.84,4.42
3500.83,4.25
3525.82,3.59
3550.82,2.60
3575.81,1.91
3600.80,1.64
3625.79,1.70
3650.78,2.54
3675.77,3.97
3700.77,4.19
3725.76,3.19
3750.75,2.20
3775.74,-0.01
3800.73,-0.28
3825.73,0.65
3850.72,1.15
3875.71,1.24
3900.70,1.52
3925.69,1.91
3950.68,2.26
3975.68,2.43
4000.67,2.05
4025.66,1.34
4050.65,1.20
4075.64,2.04
4100.63,3.08
4125.62,3.16
4150.62,2.22
4175.61,1.24
4200.60,1.04
4225.59,0.83
4250.58,0.69
4275.58,0.23
4300.57,-0.43
4325.56,-0.49
4350.55,0.25
4375.54,1.34
4400.53,2.43
4425.52,3.30
4450.52,4.03
4475.51,4.89
4500.50,5.45
4525.49,5.08
4550.48,4.35
4575.48,4.20
4600.47,4.26
4625.46,3.69
4650.45,2.88
4675.44,2.50
4700.43,2.59
4725.42,2.68
4750.42,3.19
4775.41,3.32
4800.40,2.47
4825.39,1.06
4850.38,0.04
4875.37,0.16
4900.37,1.31
4925.36,2.20
4950.35,1.65
4975.34,0.57
5000.33,1.03
5025.33,3.09
5050.32,4.77
5075.31,5.18
5100.30,5.16
5125.29,5.65
5150.28,6.63
5175.27,7.52
5200.27,7.89
5225.26,8.25
5250.25,9.15
5275.24,10.07
5300.23,10.82
5325.23,11.85
5350.22,13.25
5375.21,13.99
5400.20,13.55
5425.19,13.17
5450.18,13.66
5475.17,13.68
5500.17,12.84
5525.16,13.13
5550.15,15.39
5575.14,18.12
5600.13,21.54
5625.12,29.61
5650.12,47.92
5675.11,82.17
5700.10,110.60
5725.09,139.04
5750.08,226.58
5775.08,352.11
5800.07,518.75
5825.06,722.21
5850.05,948.77
5875.04,1176.39
5900.03,1379.06
5925.02,1531.81
5950.02,1616.13
5975.01,1624.33
6000.00,1559.95
6024.79,1435.70
6049.64,1270.33
6074.48,1084.35
6099.32,896.45
6124.16,721.87
6149.01,570.49
6173.85,445.83
6198.69,396.20
6223.53,346.58
6248.38,269.46
6273.22,211.04
6298.06,167.77
6322.90,136.08
6347.75,112.93
6372.59,96.26
6397.43,84.60
6422.27,76.09
6447.12,68.48
6471.96,60.70
6496.80,53.41
6521.65,47.56
6546.49,43.11
6571.33,39.35
6596.17,35.93
6621.02,32.78
6645.86,29.78
6670.70,26.70
6695.54,24.98
6720.39,23.27
6745.23,19.61
6770.07,16.42
6794.91,14.07
6819.76,12.27
6844.60,10.72
6869.44,9.61
6894.28,9.60
6919.13,10.85
6943.97,12.00
6968.81,11.44
6993.65,9.37
7018.50,7.60
7043.34,6.91
7068.18,6.36
7093.02,5.25
7117.87,3.90
7142.71,2.97
7167.55,2.83
7192.39,2.93
7217.24,3.03
7242.08,2.88
7266.92,2.33
7291.77,1.56
7316.61,0.86
7341.45,0.71
7366.29,0.94
7391.14,0.92
7415.98,1.00
7440.82,1.51
7465.66,1.52
7490.51,0.55
7515.35,-0.39
7540.19,-0.52
7565.03,-0.17
7589.88,0.08
7614.72,0.03
7639.56,0.09
7664.40,0.60
7689.25,0.72
7714.09,0.85
7738.93,-0.03
7763.77,-1.40
7788.62,-2.12
7813.46,-2.25
7838.30,-2.28
7863.14,-2.33
7887.99,-2.51
7912.83,-2.82
7937.67,-2.92
7962.51,-2.57
7987.36,-1.85
8012.20,-1.03
8037.04,-0.67
8061.89,-1.18
8086.73,-2.07
8111.57,-2.70
8136.41,-2.89
8161.26,-2.87
8186.10,-2.85
8210.94,-2.99
8235.78,-3.31
8260.63,-3.08
8285.47,-2.14
8310.31,-1.30
8335.15,-1.10
8360.00,-1.28
8384.84,-1.02
8409.68,-0.10
8434.52,0.10
8459.37,-1.58
8484.21,-3.86
8509.05,-4.72
8533.89,-4.20
8558.74,-3.54
8583.58,-2.92
8608.42,-1.80
8633.26,-0.41
8658.11,0.01
8682.95,0.43
8707.79,0.19
8732.63,-0.88
8757.48,-2.02
8782.32,-2.82
8807.16,-3.33
8832.00,-3.74
8856.85,-4.26
8881.69,-4.57
8906.53,-3.84
8931.37,-2.07
8956.22,-0.62
8981.06,-0.57
9005.90,-1.72
9030.75,-3.41
9055.59,-4.99
9080.43,-5.74
9105.27,-5.50
9130.12,-4.71
9154.96,-4.19
9179.80,-3.68
9204.64,-2.53
9229.49,-1.84
9254.33,-2.08
9279.17,-2.41
9304.01,-2.07
9328.86,-1.62
9353.70,-1.56
9378.54,-1.80
9403.38,-2.12
9428.23,-1.89
9453.07,-1.00
9477.91,-0.44
9502.75,-0.68
9527.60,-1.12
9552.44,-1.42
9577.28,-1.79
9602.12,-2.02
9626.97,-1.81
9651.81,-1.66
9676.65,-1.52
9701.50,-1.46
9726.34,-1.37
9751.18,-1.40
9776.02,-2.20
9800.87,-3.53
9825.71,-4.16
9850.55,-3.73
9875.39,-3.09
9900.24,-2.49
9925.08,-1.60
9949.92,-0.88
9974.76,-0.94
9999.61,-1.55
10024.45,-2.27
10049.29,-3.07
10074.13,-4.01
10098.98,-4.74
10123.82,-4.54
10148.66,-3.91
10173.50,-3.27
10198.35,-2.14
10223.19,-2.09
10248.03,-2.29
10272.87,-1.71
10297.72,-0.84
10322.56,-0.53
10347.40,-1.02
10372.25,-1.91
10397.09,-2.40
10421.93,-2.17
10446.77,-1.96
10471.62,-2.38
10496.46,-3.18
10521.30,-3.56
10546.14,-2.64
10570.99,-0.88
10595.83,-0.17
10620.67,-1.01
10645.51,-1.56
10670.36,-2.11
10695.20,-2.85
10720.04,-3.53
10744.88,-4.06
10769.73,-4.25
10794.57,-4.07
10819.41,-3.32
10844.25,-2.04
10869.10,-0.86
10893.94,-0.46
10918.78,-1.06
10943.62,-2.33
10968.47,-3.55
10993.31,-4.07
11018.15,-3.70
11043.00,-2.79
11067.84,-2.16
11092.68,-2.29
11117.52,-2.59
11142.37,-2.45
11167.21,-2.31
11192.05,-2.00
11216.89,-2.68
11241.74,-4.07
11266.58,-5.06
11291.42,-5.08
11316.26,-3.97
11341.11,-1.84
11365.95,0.30
11390.79,1.30
11415.63,1.04
11440.48,0.09
11465.32,-0.76
11490.16,-0.86
11515.00,-0.28
11539.85,0.53
11564.69,1.13
11589.53,1.25
11614.37,1.08
11639.22,0.97
11664.06,0.87
11688.90,0.58
11713.74,0.21
11738.59,0.11
11763.43,0.95
11788.27,2.35
11813.12,2.55
11837.96,1.12
11862.80,-0.02
11887.64,0.34
11912.49,1.13
11937.33,0.84
11962.17,-0.49
11987.01,-1.52
12011.86,-1.53
12036.70,-1.09
12061.54,-0.85
12086.38,-0.77
12111.23,-0.72
12136.07,-0.67
12160.91,-0.34
12185.75,-0.03
12210.60,-0.38
12235.44,-1.24
12260.28,-1.61
12285.12,-1.05
12309.97,-0.10
12334.81,0.74
12359.65,1.38
12384.49,1.72
12409.34,1.42
12434.18,0.48
12459.02,-0.11
12483.86,0.58
12508.71,1.84
12533.55,2.21
12558.39,1.52
12583.24,1.05
12608.08,1.25
12632.92,1.45
12657.76,1.93
12682.61,1.94
12707.45,1.97
12732.29,2.17
12757.13,1.93
12781.98,0.94
12806.82,-0.55
12831.66,-2.02
12856.50,-2.73
12881.35,-2.31
12906.19,-1.20
12931.03,-0.07
12955.87,0.46
12980.72,-0.09
13005.56,-1.19
13030.40,-1.63
13055.24,-1.26
13080.09,-0.90
13104.93,-0.80
13129.77,-0.70
13154.61,-0.27
13179.46,0.26
13204.30,0.49
13229.14,0.24
13253.98,-0.33
13278.83,-0.54
13303.67,0.07
13328.51,0.80
13353.35,0.48
13378.20,-0.90
13403.04,-2.16
13427.88,-2.67
13452.73,-2.84
13477.57,-2.99
13502.41,-2.84
13527.25,-2.46
13552.10,-2.12
13576.94,-1.47
13601.78,-0.89
13626.62,-0.30
13651.47,0.77
13676.31,1.24
13701.15,1.28
13725.99,1.20
13750.84,1.01
13775.68,0.55
13800.52,-0.30
13825.36,-1.26
13850.21,-1.65
13875.05,-0.89
13899.89,0.69
13924.73,1.32
13949.58,0.08
13974.42,-1.15
13999.26,-0.56
14024.10,0.65
14048.95,0.48
14073.79,-0.93
14098.63,-1.45
14123.47,-1.97
14148.32,-1.66
14173.16,-0.37
14198.00,0.85
14222.85,1.14
14247.69,0.57
14272.53,0.21
14297.37,0.79
14322.22,1.53
14347.06,1.62
14371.90,1.48
14396.74,1.41
14421.59,0.84
14446.43,-0.28
14471.27,-0.93
14496.11,-0.49
14520.96,0.27
14545.80,0.58
14570.64,0.32
14595.48,0.04
14620.33,-0.24
14645.17,-0.40
14670.01,-0.00
14694.85,0.09
14719.70,-0.07
14744.54,0.39
14769.38,1.05
14794.22,1.12
14819.07,0.90
14843.91,0.44
14868.75,-0.13
14893.59,0.20
14918.44,1.24
14943.28,1.53
14968.12,0.98
14992.97,0.54
15017.81,0.20
15042.65,-0.42
15067.49,-0.77
15092.34,-0.56
15117.18,-0.35
15142.02,0.26
15166.86,0.44
15191.71,0.52
15216.55,0.68
15241.39,0.38
15266.23,-0.67
15291.08,-1.87
15315.92,-2.58
15340.76,-2.66
15365.60,-2.18
15390.45,-1.28
15415.29,-0.47
15440.13,-0.18
15464.97,-0.10
15489.82,0.16
15514.66,0.39
15539.50,0.20
15564.34,-0.20
15589.19,-0.08
15614.03,0.03
15638.87,1.36
15663.71,2.98
15688.56,3.48
15713.40,2.60
15738.24,1.67
15763.08,1.65
15787.93,2.01
15812.77,1.99
15837.61,1.58
15862.46,1.42
15887.30,2.09
15912.14,2.93
15936.98,2.69
15961.83,1.37
15986.67,0.24
16011.51,0.41
16036.35,1.55
16061.20,2.15
16086.04,1.92
16110.88,1.70
16135.72,1.18
16160.57,1.10
16185.41,0.94
16210.25,0.68
16235.09,0.87
16259.94,1.42
16284.78,1.86
16309.62,1.89
16334.46,1.60
16359.31,1.50
16384.15,1.67
16408.99,1.34
16433.84,0.32
16458.68,-0.54
16483.52,-0.72
16508.36,-0.19
16533.21,1.19
16558.05,2.04
16582.89,2.89
16607.73,3.34
16632.58,2.29
16657.42,1.37
16682.26,1.19
16707.10,0.83
16731.95,0.01
16756.79,-0.57
16781.63,-0.31
16806.47,0.89
16831.32,2.26
16856.16,2.99
16881.00,3.30
16905.84,3.39
16930.69,2.72
16955.53,1.42
16980.37,0.51
17005.21,0.25
17030.06,0.22
17054.90,0.25
17079.74,0.29
17104.58,0.54
17129.43,1.11
17154.27,2.22
17179.11,3.29
17203.96,3.26
17228.80,2.02
17253.64,0.84
17278.48,0.89
17303.33,1.65
17328.17,1.61
17353.01,0.53
17377.85,-0.11
17402.70,0.74
17427.54,2.21
17452.38,2.80
17477.22,2.43
17502.07,1.82
17526.91,1.08
17551.75,0.79
17576.59,0.50
17601.44,0.93
17626.28,2.27
17651.12,2.94
17675.96,2.09
17700.81,1.01
17725.65,0.88
17750.49,1.08
17775.33,1.13
17800.18,1.70
17825.02,2.74
17849.86,3.05
17874.71,2.19
17899.55,1.06
17924.39,0.56
17949.23,0.68
17974.07,0.94
17998.92,0.86
18023.76,0.25
18048.60,-0.10
18073.45,-0.45
18098.29,-0.37
18123.13,0.67
18147.97,1.75
18172.82,1.82
18197.66,0.94
18222.50,0.00
18247.34,0.00
18272.19,0.00
18297.03,0.00
18321.87,0.00
18346.71,0.00
18371.56,0.00
18396.40,0.00
18421.24,0.00
18446.08,0.00
18470.93,0.00
18495.77,0.00
18520.61,0.00
18545.46,0.00
