Size (bp),Intensity
0.58,2486.70
1.00,1986.42
2.00,1271.42
2.42,674.70
2.84,323.80
3.26,167.55
3.68,111.75
4.10,95.47
4.52,92.69
4.94,92.97
5.36,93.25
5.79,92.88
6.21,90.47
6.63,85.90
7.05,78.71
7.47,69.09
7.89,58.13
8.31,46.92
8.73,36.39
9.15,27.82
9.57,22.29
9.99,19.76
10.41,18.92
10.83,18.33
11.25,17.66
11.67,16.92
12.09,15.63
12.52,13.74
12.94,11.80
13.36,9.79
13.78,8.77
14.20,7.76
14.62,6.49
15.04,6.12
15.46,6.27
15.88,7.10
16.30,8.14
16.72,8.51
17.14,8.65
17.56,9.01
17.98,8.86
18.40,8.19
18.82,8.14
19.24,8.81
19.67,8.86
20.09,7.46
20.51,5.60
20.93,5.08
21.35,6.43
21.77,8.24
22.19,8.87
22.61,8.56
23.03,8.26
23.45,7.40
23.87,6.90
24.29,7.22
24.71,8.42
25.13,9.58
25.55,9.91
25.97,9.61
26.39,8.99
26.82,7.96
27.24,6.53
27.66,5.30
28.08,4.99
28.50,5.41
28.92,5.77
29.34,5.96
29.76,6.24
30.18,6.46
30.60,6.53
31.02,6.57
31.44,6.61
31.86,6.76
32.28,7.09
32.70,7.56
33.12,7.62
33.55,7.16
33.97,7.22
34.39,8.10
34.81,8.00
35.23,5.93
35.65,3.51
36.07,2.76
36.49,4.04
36.91,6.51
37.33,9.04
37.75,10.62
38.17,11.06
38.59,11.57
39.01,13.12
39.43,14.64
39.85,14.87
40.27,15.11
40.70,15.45
41.12,16.22
41.54,16.50
41.96,16.27
42.38,16.43
42.80,16.80
43.22,16.52
43.64,15.52
44.06,14.46
44.48,13.70
44.90,12.90
45.32,11.62
45.74,10.00
46.16,8.73
46.58,8.29
47.00,8.39
47.42,8.34
47.85,7.75
48.27,6.59
48.69,5.83
49.11,5.06
49.53,3.58
49.95,2.57
50.37,1.94
50.79,1.52
51.21,1.46
51.63,1.87
52.05,2.68
52.47,3.68
52.89,4.29
53.31,3.85
53.73,2.48
54.15,1.48
54.58,1.87
55.00,2.78
55.42,2.92
55.84,2.31
56.26,1.44
56.68,0.64
57.10,0.35
57.52,0.53
57.94,0.71
58.36,1.47
58.78,2.16
59.20,2.37
59.62,2.12
60.04,1.51
60.46,0.54
60.88,-0.36
61.30,-0.74
61.73,-0.80
62.15,-0.94
62.57,-1.05
62.99,-0.97
63.41,-0.70
63.83,0.00
64.25,1.00
64.67,1.27
65.09,0.36
65.51,-0.68
65.93,-0.82
66.35,-0.96
66.77,-0.63
67.19,0.09
67.61,1.23
68.03,2.67
68.45,4.21
68.88,5.37
69.30,5.36
69.72,4.19
70.14,2.80
70.56,1.80
70.98,1.17
71.40,1.00
71.82,1.19
72.24,1.18
72.66,1.07
73.08,1.62
73.50,2.48
73.92,2.52
74.34,1.56
74.76,0.87
75.18,0.18
75.61,-0.85
76.03,-0.79
76.45,0.42
76.87,1.70
77.29,1.97
77.71,1.45
78.13,1.33
78.55,1.95
78.97,2.38
79.39,1.82
79.81,0.94
80.23,0.80
80.65,1.04
81.07,0.91
81.49,1.15
81.91,2.35
82.33,3.17
82.76,2.34
83.18,0.84
83.60,0.55
84.02,0.26
84.44,1.00
84.86,2.53
85.28,3.86
85.70,3.95
86.12,2.97
86.54,2.03
86.96,1.63
87.38,1.66
87.80,2.29
88.22,3.35
88.64,3.99
89.06,3.60
89.48,2.65
89.91,2.07
90.33,2.04
90.75,1.79
91.17,0.86
91.59,0.15
92.01,0.48
92.43,0.81
92.85,2.17
93.27,2.70
93.69,2.13
94.11,1.22
94.53,0.68
94.95,0.65
95.37,0.83
95.79,1.15
96.21,1.70
96.64,1.90
97.06,1.17
97.48,0.25
97.90,0.17
98.32,0.64
98.74,0.81
99.16,0.62
99.58,0.42
100.00,0.16
101.00,-0.20
101.52,-0.27
102.04,-0.34
102.56,-0.29
103.08,-0.46
103.61,-0.89
104.13,-1.12
104.65,-0.81
105.17,-0.10
105.69,0.62
106.21,1.32
106.73,2.03
107.25,2.26
107.77,1.65
108.29,0.75
108.82,0.44
109.34,0.77
109.86,0.95
110.38,0.49
110.90,-0.26
111.42,-0.64
111.94,-0.59
112.46,-0.56
112.98,-0.53
113.51,-0.46
114.03,-0.07
114.55,0.35
115.07,-0.19
115.59,-1.90
116.11,-3.38
116.63,-3.49
117.15,-2.67
117.67,-1.83
118.19,-1.19
118.72,-0.67
119.24,-0.20
119.76,0.22
120.28,0.44
120.80,0.33
121.32,-0.01
121.84,-0.15
122.36,0.37
122.88,1.18
123.41,1.27
123.93,1.35
124.45,0.53
124.97,-0.74
125.49,-1.50
126.01,-1.27
126.53,-0.46
127.05,-0.11
127.57,-0.91
128.09,-2.22
128.62,-2.86
129.14,-2.75
129.66,-2.70
130.18,-2.90
130.70,-2.99
131.22,-3.09
131.74,-3.32
132.26,-3.23
132.78,-2.83
133.31,-3.16
133.83,-3.78
134.35,-4.40
134.87,-5.10
135.39,-4.30
135.91,-3.13
136.43,-3.00
136.95,-3.42
137.47,-3.17
137.99,-2.08
138.52,-0.75
139.04,-0.37
139.56,-1.73
140.08,-3.57
140.60,-4.10
141.12,-3.21
141.64,-2.04
142.16,-1.93
142.68,-3.27
143.21,-4.74
143.73,-5.04
144.25,-4.67
144.77,-4.65
145.29,-4.63
145.81,-4.61
146.33,-4.14
146.85,-3.47
147.37,-2.58
147.89,-1.54
148.42,-1.43
148.94,-2.43
149.46,-3.03
149.98,-2.59
150.50,-2.26
151.02,-2.84
151.54,-3.69
152.06,-3.61
152.58,-2.04
153.11,0.22
153.63,1.34
154.15,0.25
154.67,-2.16
155.19,-4.08
155.71,-4.39
156.23,-4.70
156.75,-4.25
157.27,-3.17
157.79,-2.09
158.32,-1.87
158.84,-2.59
159.36,-3.15
159.88,-3.10
160.40,-2.98
160.92,-2.44
161.44,-0.90
161.96,0.75
162.48,1.11
163.01,0.34
163.53,-0.30
164.05,-0.13
164.57,0.69
165.09,1.69
165.61,2.16
166.13,1.85
166.65,1.53
167.17,0.27
167.69,-0.79
168.22,-1.51
168.74,-1.90
169.26,-1.54
169.78,-0.35
170.30,0.99
170.82,1.60
171.34,0.98
171.86,-0.32
172.38,-0.89
172.91,-0.00
173.43,1.61
173.95,2.28
174.47,1.17
174.99,-0.54
175.51,-1.29
176.03,-1.14
176.55,-0.82
177.07,-0.57
177.59,-0.32
178.12,0.57
178.64,1.43
179.16,1.73
179.68,1.45
180.20,0.93
180.72,0.71
181.24,1.22
181.76,2.06
182.28,2.56
182.81,3.03
183.33,4.42
183.85,6.66
184.37,8.38
184.89,8.68
185.41,8.15
185.93,7.72
186.45,7.51
186.97,7.16
187.49,6.70
188.02,6.54
188.54,6.38
189.06,6.53
189.58,7.26
190.10,8.47
190.62,10.09
191.14,12.22
191.66,14.48
192.18,16.36
192.71,17.89
193.23,19.53
193.75,21.46
194.27,23.18
194.79,24.21
195.31,25.02
195.83,26.16
196.35,27.32
196.87,28.51
197.39,30.12
197.92,31.20
198.44,30.26
198.96,29.00
199.48,27.75
200.00,25.51
201.00,24.30
201.59,23.36
202.17,22.59
202.76,23.13
203.34,25.22
203.93,27.53
204.51,29.10
205.10,30.33
205.69,31.74
206.27,32.93
206.86,33.62
207.44,34.29
208.03,34.98
208.62,34.85
209.20,33.37
209.79,30.78
210.37,27.70
210.96,26.12
211.54,24.53
212.13,21.77
212.72,20.52
213.30,20.92
213.89,21.44
214.47,20.91
215.06,19.43
215.64,17.79
216.23,17.29
216.82,18.18
217.40,18.73
217.99,17.68
218.57,16.01
219.16,14.98
219.75,14.64
220.33,14.67
220.92,14.95
221.50,15.25
222.09,15.12
222.67,14.09
223.26,13.30
223.85,12.50
224.43,11.89
225.02,13.08
225.60,14.61
226.19,14.71
226.78,13.99
227.36,14.62
227.95,16.96
228.53,19.15
229.12,19.62
229.70,18.48
230.29,16.93
230.88,16.12
231.46,16.23
232.05,16.59
232.63,16.33
233.22,15.28
233.80,14.42
234.39,14.67
234.98,15.99
235.56,17.00
236.15,18.00
236.73,20.76
237.32,24.18
237.91,27.16
238.49,28.63
239.08,29.40
239.66,30.57
240.25,31.46
240.83,31.48
241.42,31.73
242.01,33.05
242.59,34.84
243.18,36.42
243.76,37.55
244.35,38.49
244.93,40.13
245.52,43.41
246.11,48.47
246.69,54.27
247.28,56.77
247.86,59.27
248.45,62.54
249.04,63.88
249.62,63.63
250.21,62.24
250.79,60.00
251.38,57.47
251.96,55.86
252.55,56.89
253.14,62.45
253.72,73.25
254.31,87.66
254.89,102.81
255.48,116.69
256.07,128.55
256.65,137.82
257.24,143.47
257.82,145.19
258.41,144.30
258.99,142.70
259.58,142.17
260.17,141.63
260.75,142.09
261.34,145.09
261.92,152.04
262.51,164.95
263.09,185.45
263.68,214.53
264.27,253.33
264.85,302.20
265.44,358.99
266.02,419.32
266.61,478.35
267.20,532.55
267.78,581.77
268.37,630.01
268.95,681.99
269.54,737.52
270.12,791.03
270.71,838.95
271.30,887.90
271.88,921.75
272.47,955.61
273.05,1064.28
273.64,1230.66
274.22,1455.95
274.81,1720.34
275.40,1989.05
275.98,2230.96
276.57,2436.69
277.15,2620.13
277.74,2805.16
278.33,3015.48
278.91,3278.41
279.50,3638.87
280.08,4169.54
280.67,4954.65
281.25,6042.76
281.84,7440.39
282.43,9253.86
283.01,11890.54
283.60,13899.73
284.18,15908.92
284.77,21304.16
285.36,26847.71
285.94,30385.78
286.53,30140.49
287.11,26018.10
287.70,19717.55
288.28,13464.29
288.87,8629.38
289.46,5423.18
290.04,3445.60
290.63,2239.85
291.21,1500.87
291.80,1060.25
292.38,817.25
292.97,697.33
293.56,644.45
294.14,622.28
294.73,610.98
295.31,601.35
295.90,595.11
296.49,588.88
297.07,570.28
297.66,542.79
298.24,505.08
298.83,458.83
299.41,408.37
300.00,358.74
301.00,314.45
301.70,278.17
302.39,249.90
303.09,228.14
303.79,211.37
304.49,198.51
305.18,188.94
305.88,181.87
306.58,175.69
307.27,168.60
307.97,160.10
308.67,151.46
309.37,144.88
310.06,143.58
310.76,142.29
311.46,144.87
312.15,152.54
312.85,162.51
313.55,169.42
314.25,168.93
314.94,161.15
315.64,149.50
316.34,136.89
317.04,123.94
317.73,109.91
318.43,94.11
319.13,76.89
319.82,60.35
320.52,47.50
321.22,39.52
321.92,34.52
322.61,30.47
323.31,27.54
324.01,26.38
324.70,26.30
325.40,26.21
326.10,25.67
326.80,24.26
327.49,22.31
328.19,20.34
328.89,18.64
329.58,17.12
330.28,15.62
330.98,14.06
331.68,12.69
332.37,11.80
333.07,11.25
333.77,10.97
334.46,11.00
335.16,10.80
335.86,9.76
336.56,8.24
337.25,7.15
337.95,6.71
338.65,6.65
339.35,6.59
340.04,6.54
340.74,6.61
341.44,7.04
342.13,7.70
342.83,7.83
343.53,7.55
344.23,7.89
344.92,8.64
345.62,8.38
346.32,7.02
347.01,5.85
347.71,5.32
348.41,5.01
349.11,4.66
349.80,4.37
350.50,4.34
351.20,4.31
351.89,3.68
352.59,2.82
353.29,2.68
353.99,2.53
354.68,2.44
355.38,1.94
356.08,1.47
356.77,1.58
357.47,2.30
358.17,3.25
358.87,3.43
359.56,2.26
360.26,0.60
360.96,-0.76
361.65,-1.91
362.35,-2.82
363.05,-3.27
363.75,-3.21
364.44,-2.49
365.14,-1.39
365.84,-0.80
366.54,-1.11
367.23,-1.66
367.93,-1.60
368.63,-1.55
369.32,-0.83
370.02,-0.34
370.72,-0.62
371.42,-1.51
372.11,-2.43
372.81,-2.70
373.51,-2.18
374.20,-1.21
374.90,0.18
375.60,1.60
376.30,1.90
376.99,0.84
377.69,-0.30
378.39,-0.58
379.08,-0.36
379.78,-0.45
380.48,-1.26
381.18,-2.28
381.87,-2.48
382.57,-2.68
383.27,-2.71
383.96,-2.78
384.66,-2.18
385.36,-0.79
386.06,0.23
386.75,0.46
387.45,0.65
388.15,0.82
388.85,0.23
389.54,-0.97
390.24,-1.63
390.94,-1.14
391.63,0.03
392.33,1.09
393.03,1.38
393.73,0.67
394.42,-0.50
395.12,-1.37
395.82,-1.57
396.51,-1.36
397.21,-1.15
397.91,-0.57
398.61,-0.70
399.30,-1.87
400.00,-3.13
401.00,-3.18
401.72,-1.97
402.45,-0.85
403.17,-0.78
403.89,-1.31
404.61,-1.64
405.34,-1.81
406.06,-2.01
406.78,-2.09
407.50,-2.03
408.23,-1.56
408.95,-0.29
409.67,0.87
410.39,0.51
411.12,-1.07
411.84,-1.77
412.56,-2.46
413.28,-2.99
414.01,-2.88
414.73,-2.57
415.45,-2.24
416.18,-1.85
416.90,-1.58
417.62,-1.70
418.34,-1.80
419.07,-1.14
419.79,-0.03
420.51,0.46
421.23,0.15
421.96,-0.04
422.68,0.10
423.40,-0.34
424.12,-1.32
424.85,-1.37
425.57,0.12
426.29,1.64
427.01,1.65
427.74,1.67
428.46,0.97
429.18,1.31
429.91,2.50
430.63,2.77
431.35,1.75
432.07,0.66
432.80,0.24
433.52,0.43
434.24,0.97
434.96,1.35
435.69,1.01
436.41,0.16
437.13,-0.54
437.85,-1.05
438.58,-1.57
439.30,-1.60
440.02,-0.86
440.74,0.01
441.47,0.30
442.19,0.59
442.91,0.64
443.64,-0.16
444.36,-0.97
445.08,-0.50
445.80,0.74
446.53,1.10
447.25,0.33
447.97,-0.37
448.69,-0.15
449.42,0.73
450.14,1.52
450.86,1.93
451.58,1.65
452.31,0.17
453.03,-1.99
453.75,-3.30
454.47,-3.03
455.20,-1.78
455.92,-0.67
456.64,-0.68
457.36,-0.69
458.09,-2.14
458.81,-4.25
459.53,-5.68
460.26,-5.68
460.98,-4.34
461.70,-2.48
462.42,-1.49
463.15,-1.99
463.87,-2.80
464.59,-2.72
465.31,-2.08
466.04,-1.47
466.76,-0.96
467.48,-0.95
468.20,-1.78
468.93,-2.61
469.65,-2.45
470.37,-1.33
471.09,-0.01
471.82,0.24
472.54,0.49
473.26,-0.17
473.99,-1.12
474.71,-1.43
475.43,-1.29
476.15,-1.29
476.88,-1.18
477.60,-0.49
478.32,0.18
479.04,-0.07
479.77,-1.05
480.49,-1.83
481.21,-1.86
481.93,-1.45
482.66,-1.23
483.38,-1.08
484.10,-0.26
484.82,1.22
485.55,2.54
486.27,2.79
486.99,3.04
487.72,2.69
488.44,1.70
489.16,0.56
489.88,0.17
490.61,0.68
491.33,1.14
492.05,0.81
492.77,-0.10
493.50,-1.11
494.22,-1.78
494.94,-1.89
495.66,-1.67
496.39,-1.29
497.11,-0.84
497.83,-0.51
498.55,-0.32
499.28,-0.43
500.00,-1.09
501.00,-1.77
502.01,-1.76
503.02,-1.76
504.03,-1.21
505.04,-0.86
506.05,-0.99
507.06,-1.25
508.07,-1.50
509.08,-1.75
510.09,-1.59
511.10,-0.76
512.11,0.10
513.12,0.07
514.13,-0.93
515.14,-2.14
516.15,-2.82
517.16,-2.66
518.17,-1.96
519.18,-1.65
520.19,-1.80
521.20,-1.30
522.21,-0.05
523.22,0.25
524.23,0.54
525.24,-0.13
526.26,-1.00
527.27,-1.11
528.28,-0.87
529.29,-1.19
530.30,-2.14
531.31,-2.98
532.32,-2.96
533.33,-2.18
534.34,-1.37
535.35,-1.06
536.36,-1.30
537.37,-1.74
538.38,-1.68
539.39,-1.05
540.40,-0.99
541.41,-2.14
542.42,-3.28
543.43,-3.20
544.44,-2.87
545.45,-2.53
546.46,-2.19
547.47,-2.30
548.48,-2.86
549.49,-3.54
550.50,-3.68
551.51,-3.12
552.52,-2.21
553.53,-1.46
554.54,-1.38
555.55,-2.05
556.56,-2.90
557.57,-3.27
558.58,-3.19
559.59,-3.14
560.60,-3.14
561.61,-2.77
562.62,-2.17
563.63,-2.08
564.64,-2.40
565.65,-2.72
566.66,-3.36
567.67,-3.20
568.68,-2.62
569.69,-2.53
570.70,-3.02
571.71,-3.91
572.72,-5.04
573.73,-5.51
574.74,-4.49
575.76,-2.64
576.77,-1.30
577.78,-1.05
578.79,-1.70
579.80,-2.72
580.81,-3.58
581.82,-4.16
582.83,-4.51
583.84,-4.18
584.85,-2.34
585.86,-0.89
586.87,0.57
587.88,2.54
588.89,2.32
589.90,0.63
590.91,-1.10
591.92,-2.04
592.93,-2.11
593.94,-1.89
594.95,-2.07
595.96,-2.52
596.97,-2.50
597.98,-1.91
598.99,-1.48
600.00,-1.81
601.00,-2.45
602.18,-2.48
603.36,-2.03
604.54,-2.01
605.71,-2.29
606.89,-1.96
608.07,-1.57
609.25,-1.18
610.43,-0.80
611.61,-0.82
612.79,-0.60
613.96,-0.16
615.14,-0.05
616.32,-0.41
617.50,-0.95
618.68,-1.56
619.86,-2.16
621.04,-2.30
622.21,-1.79
623.39,-1.26
624.57,-1.00
625.75,-0.57
626.93,-0.04
628.11,0.16
629.29,-0.12
630.46,-0.96
631.64,-1.50
632.82,-2.04
634.00,-2.63
635.18,-2.72
636.36,-2.82
637.54,-2.95
638.71,-3.14
639.89,-3.58
641.07,-3.84
642.25,-3.09
643.43,-1.28
644.61,0.72
645.79,1.96
646.96,2.02
648.14,1.32
649.32,0.62
650.50,0.12
651.68,-0.58
652.86,-1.72
654.04,-2.88
655.21,-3.08
656.39,-2.39
657.57,-1.71
658.75,0.53
659.93,2.27
661.11,2.98
662.29,3.00
663.46,2.63
664.64,2.05
665.82,1.64
667.00,1.75
668.18,2.22
669.36,2.66
670.54,2.98
671.71,3.26
672.89,3.53
674.07,3.79
675.25,4.09
676.43,4.53
677.61,5.23
678.79,5.87
679.96,6.08
681.14,6.17
682.32,6.27
683.50,6.88
684.68,7.33
685.86,6.99
687.04,6.22
688.21,5.79
689.39,6.02
690.57,6.69
691.75,7.34
692.93,8.06
694.11,8.98
695.29,9.39
696.46,8.98
697.64,8.64
698.82,9.09
700.00,10.14
701.00,11.08
702.98,11.13
704.96,9.94
706.94,9.19
708.92,8.44
710.90,8.18
712.88,9.35
714.86,10.61
716.84,10.88
718.82,10.37
720.80,9.88
722.78,9.81
724.76,9.90
726.74,9.71
728.72,9.18
730.70,8.81
732.68,8.75
734.66,8.34
736.64,7.31
738.62,6.47
740.60,6.52
742.58,6.97
744.56,6.91
746.54,6.24
748.52,6.01
750.50,5.79
752.48,6.40
754.46,7.77
756.44,8.49
758.42,7.85
760.40,6.76
762.38,6.26
764.36,6.43
766.34,6.78
768.32,6.73
770.30,6.17
772.28,5.70
774.26,5.75
776.24,5.81
778.22,5.41
780.20,4.72
782.18,4.02
784.16,3.35
786.14,2.62
788.12,1.74
790.10,1.50
792.08,1.26
794.06,2.04
796.04,3.90
798.02,5.39
800.00,5.51
801.00,5.03
803.36,5.01
805.71,5.22
808.07,5.39
810.43,6.13
812.79,7.05
815.14,7.25
817.50,7.25
819.86,7.61
822.21,7.60
824.57,6.69
826.93,5.38
829.29,4.37
831.64,4.07
834.00,4.50
836.36,4.84
838.71,5.18
841.07,5.72
843.43,6.11
845.79,6.22
848.14,5.52
850.50,3.95
852.86,2.24
855.21,1.24
857.57,1.47
859.93,2.50
862.29,3.11
864.64,2.77
867.00,2.07
869.36,1.38
871.71,0.62
874.07,0.15
876.43,0.43
878.79,1.18
881.14,1.93
883.50,2.27
885.86,2.61
888.21,3.03
890.57,2.87
892.93,2.38
895.29,2.10
897.64,2.11
900.00,2.21
901.00,2.35
904.67,2.36
908.33,1.65
912.00,0.02
915.67,-1.62
919.33,-2.49
923.00,-2.80
926.67,-2.90
930.33,-2.57
934.00,-1.50
937.67,-0.02
941.33,1.06
945.00,1.36
948.67,1.27
952.33,1.17
956.00,0.88
959.67,0.85
963.33,1.21
967.00,1.36
970.67,0.96
974.33,0.38
978.00,-0.38
981.67,-1.26
985.33,-1.24
989.00,-0.35
992.67,0.03
996.33,-0.24
1000.00,-0.05
1001.00,0.44
1006.10,0.06
1011.21,-1.33
1016.31,-2.59
1021.41,-2.56
1026.51,-1.48
1031.62,-1.09
1036.72,-0.70
1041.82,-0.56
1046.92,-0.32
1052.03,-0.04
1057.13,-0.35
1062.23,-1.08
1067.33,-1.63
1072.44,-1.88
1077.54,-1.94
1082.64,-1.85
1087.74,-1.83
1092.85,-2.14
1097.95,-2.64
1103.05,-2.92
1108.15,-2.73
1113.26,-2.22
1118.36,-1.45
1123.46,-0.15
1128.56,1.15
1133.67,1.03
1138.77,0.91
1143.87,-0.87
1148.97,-2.20
1154.08,-2.15
1159.18,-1.71
1164.28,-1.54
1169.38,-1.52
1174.49,-1.52
1179.59,-1.19
1184.69,-0.58
1189.79,-0.38
1194.90,-0.84
1200.00,-1.97
1201.00,-3.64
1210.06,-4.79
1219.12,-4.59
1228.18,-3.98
1237.24,-3.93
1246.30,-3.81
1255.36,-3.01
1264.42,-2.56
1273.48,-2.12
1282.55,-1.83
1291.61,-2.47
1300.67,-3.91
1309.73,-5.05
1318.79,-4.63
1327.85,-3.00
1336.91,-1.62
1345.97,-1.00
1355.03,-0.81
1364.09,-1.12
1373.15,-2.00
1382.21,-3.07
1391.27,-3.87
1400.33,-3.81
1409.39,-2.85
1418.45,-1.85
1427.52,-1.22
1436.58,-0.72
1445.64,-0.36
1454.70,-0.21
1463.76,-0.07
1472.82,0.42
1481.88,0.70
1490.94,0.41
1500.00,-0.03
1501.00,-0.26
1510.24,-0.51
1519.48,-0.89
1528.72,-1.23
1537.96,-1.43
1547.20,-1.70
1556.44,-2.34
1565.69,-2.79
1574.93,-1.73
1584.17,0.93
1593.41,3.12
1602.65,2.95
1611.89,1.17
1621.13,-0.19
1630.37,-0.61
1639.61,-0.65
1648.85,-0.69
1658.09,-0.52
1667.33,-0.11
1676.57,0.16
1685.81,0.13
1695.06,-0.25
1704.30,-0.99
1713.54,-1.54
1722.78,-1.13
1732.02,-0.07
1741.26,0.46
1750.50,-0.07
1759.74,-0.79
1768.98,-0.60
1778.22,0.37
1787.46,1.04
1796.70,0.97
1805.94,0.80
1815.19,0.75
1824.43,0.48
1833.67,0.20
1842.91,-0.50
1852.15,-0.09
1861.39,1.30
1870.63,2.05
1879.87,1.43
1889.11,0.51
1898.35,0.59
1907.59,1.70
1916.83,2.99
1926.07,3.93
1935.31,4.54
1944.56,4.93
1953.80,4.86
1963.04,3.81
1972.28,2.09
1981.52,1.27
1990.76,2.16
2000.00,3.33
2001.00,3.11
2018.22,2.41
2035.45,1.71
2052.67,0.18
2069.90,-1.01
2087.12,-1.76
2104.34,-1.88
2121.57,-1.13
2138.79,0.45
2156.02,2.20
2173.24,3.34
2190.47,3.33
2207.69,1.90
2224.91,0.14
2242.14,0.06
2259.36,1.83
2276.59,3.31
2293.81,3.27
2311.03,2.52
2328.26,2.13
2345.48,2.33
2362.71,2.98
2379.93,3.37
2397.16,3.76
2414.38,4.16
2431.60,3.85
2448.83,3.10
2466.05,2.50
2483.28,2.37
2500.50,2.65
2517.72,3.05
2534.95,3.41
2552.17,3.39
2569.40,2.47
2586.62,1.17
2603.84,0.78
2621.07,1.41
2638.29,2.22
2655.52,3.04
2672.74,3.74
2689.97,3.65
2707.19,3.04
2724.41,3.12
2741.64,3.20
2758.86,4.14
2776.09,4.57
2793.31,3.97
2810.53,3.03
2827.76,2.69
2844.98,2.91
2862.21,2.80
2879.43,2.05
2896.66,1.27
2913.88,1.03
2931.10,1.58
2948.33,2.63
2965.55,3.46
2982.78,3.80
3000.00,3.88
3001.00,3.79
3025.99,3.73
3050.98,4.07
3075.98,4.64
3100.97,4.75
3125.96,4.86
3150.95,4.95
3175.94,5.30
3200.93,5.09
3225.93,3.89
3250.92,3.06
3275.91,3.94
3300.90,5.91
3325.89,7.16
3350.88,6.54
3375.87,4.54
3400.87,2.66
3425.86,1.84
3450.85,1.76
3475.84,2.01
3500.83,2.81
3525.82,4.28
3550.82,5.90
3575.81,6.83
3600.80,6.55
3625.79,5.95
3650.78,5.36
3675.77,3.83
3700.77,2.31
3725.76,1.24
3750.75,1.04
3775.74,1.63
3800.73,2.44
3825.73,3.04
3850.72,3.37
3875.71,3.37
3900.70,2.79
3925.69,1.78
3950.68,0.95
3975.68,0.57
4000.67,0.64
4025.66,1.26
4050.65,2.09
4075.64,2.56
4100.63,2.77
4125.62,2.85
4150.62,2.64
4175.61,2.43
4200.60,1.24
4225.59,-0.23
4250.58,-1.07
4275.58,-0.98
4300.57,-0.46
4325.56,-0.13
4350.55,-0.12
4375.54,0.06
4400.53,0.87
4425.52,1.89
4450.52,2.15
4475.51,1.70
4500.50,1.48
4525.49,1.91
4550.48,2.47
4575.48,2.41
4600.47,1.33
4625.46,-0.10
4650.45,-0.42
4675.44,-0.74
4700.43,-0.46
4725.42,0.18
4750.42,1.26
4775.41,2.77
4800.40,3.78
4825.39,3.71
4850.38,3.39
4875.37,3.61
4900.37,4.01
4925.36,3.59
4950.35,2.06
4975.34,0.63
5000.33,0.72
5025.33,2.21
5050.32,3.74
5075.31,4.55
5100.30,4.99
5125.29,5.57
5150.28,6.10
5175.27,5.93
5200.27,5.76
5225.26,4.24
5250.25,2.79
5275.24,2.84
5300.23,4.03
5325.23,5.04
5350.22,5.56
5375.21,5.95
5400.20,6.36
5425.19,6.63
5450.18,6.14
5475.17,4.33
5500.17,1.63
5525.16,-0.67
5550.15,-1.23
5575.14,0.33
5600.13,3.32
5625.12,7.52
5650.12,14.74
5675.11,29.79
5700.10,45.86
5725.09,61.93
5750.08,125.53
5775.08,239.26
5800.07,422.80
5825.06,688.50
5850.05,1031.13
5875.04,1422.99
5900.03,1818.50
5925.02,2163.36
5950.02,2403.08
5975.01,2494.55
6000.00,2421.55
6024.79,2202.21
6049.64,1880.71
6074.48,1511.34
6099.32,1144.79
6124.16,819.21
6149.01,555.46
6173.85,358.25
6198.69,290.00
6223.53,221.75
6248.38,134.37
6273.22,82.16
6298.06,52.67
6322.90,36.91
6347.75,28.64
6372.59,23.89
6397.43,20.49
6422.27,17.85
6447.12,16.63
6471.96,16.98
6496.80,17.74
6521.65,18.02
6546.49,17.70
6571.33,16.76
6596.17,15.56
6621.02,14.90
6645.86,15.03
6670.70,14.92
6695.54,13.62
6720.39,12.70
6745.23,11.77
6770.07,10.72
6794.91,10.74
6819.76,10.68
6844.60,9.50
6869.44,7.51
6894.28,5.71
6919.13,4.49
6943.97,3.24
6968.81,1.68
6993.65,0.59
7018.50,0.39
7043.34,0.36
7068.18,0.15
7093.02,0.26
7117.87,0.41
7142.71,-0.34
7167.55,-1.73
7192.39,-2.69
7217.24,-3.11
7242.08,-3.42
7266.92,-3.73
7291.77,-4.39
7316.61,-3.78
7341.45,-1.59
7366.29,0.48
7391.14,1.07
7415.98,0.95
7440.82,0.96
7465.66,0.73
7490.51,0.14
7515.35,-0.21
7540.19,-0.22
7565.03,-0.39
7589.88,-1.02
7614.72,-2.05
7639.56,-3.17
7664.40,-4.01
7689.25,-4.39
7714.09,-4.31
7738.93,-4.13
7763.77,-3.95
7788.62,-3.59
7813.46,-3.49
7838.30,-3.80
7863.14,-4.43
7887.99,-4.74
7912.83,-4.05
7937.67,-3.08
7962.51,-3.25
7987.36,-4.22
8012.20,-4.55
8037.04,-3.95
8061.89,-3.01
8086.73,-2.26
8111.57,-2.00
8136.41,-1.84
8161.26,-1.48
8186.10,-1.71
8210.94,-2.90
8235.78,-3.82
8260.63,-3.84
8285.47,-3.85
8310.31,-3.76
8335.15,-3.63
8360.00,-3.00
8384.84,-2.50
8409.68,-2.91
8434.52,-3.66
8459.37,-3.86
8484.21,-3.72
8509.05,-3.86
8533.89,-4.08
8558.74,-3.78
8583.58,-3.28
8608.42,-3.68
8633.26,-5.13
8658.11,-6.02
8682.95,-4.98
8707.79,-2.73
8732.63,-1.22
8757.48,-1.65
8782.32,-2.43
8807.16,-3.21
8832.00,-4.02
8856.85,-3.58
8881.69,-3.30
8906.53,-4.06
8931.37,-4.84
8956.22,-4.34
8981.06,-3.06
9005.90,-2.64
9030.75,-3.48
9055.59,-4.39
9080.43,-4.54
9105.27,-4.34
9130.12,-4.19
9154.96,-4.04
9179.80,-3.55
9204.64,-2.46
9229.49,-1.21
9254.33,-0.86
9279.17,-1.66
9304.01,-2.13
9328.86,-2.59
9353.70,-2.72
9378.54,-2.01
9403.38,-1.22
9428.23,-1.39
9453.07,-2.68
9477.91,-3.48
9502.75,-2.56
9527.60,-1.01
9552.44,-0.23
9577.28,-0.19
9602.12,-0.62
9626.97,-1.47
9651.81,-2.44
9676.65,-3.19
9701.50,-3.92
9726.34,-4.83
9751.18,-5.41
9776.02,-4.94
9800.87,-4.33
9825.71,-3.73
9850.55,-3.14
9875.39,-3.65
9900.24,-4.25
9925.08,-4.20
9949.92,-4.24
9974.76,-5.27
9999.61,-6.76
10024.45,-7.23
10049.29,-6.27
10074.13,-4.88
10098.98,-3.74
10123.82,-3.07
10148.66,-3.49
10173.50,-4.81
10198.35,-5.36
10223.19,-4.39
10248.03,-3.23
10272.87,-2.87
10297.72,-2.87
10322.56,-2.92
10347.40,-2.96
10372.25,-3.46
10397.09,-4.26
10421.93,-4.74
10446.77,-4.76
10471.62,-5.13
10496.46,-6.21
10521.30,-6.74
10546.14,-6.05
10570.99,-5.36
10595.83,-5.44
10620.67,-5.38
10645.51,-4.70
10670.36,-4.37
10695.20,-4.84
10720.04,-5.33
10744.88,-5.25
10769.73,-4.89
10794.57,-4.76
10819.41,-4.79
10844.25,-4.59
10869.10,-4.40
10893.94,-3.59
10918.78,-3.07
10943.62,-3.11
10968.47,-3.16
10993.31,-2.82
11018.15,-2.52
11043.00,-2.97
11067.84,-4.00
11092.68,-4.52
11117.52,-4.14
11142.37,-3.72
11167.21,-3.65
11192.05,-3.50
11216.89,-3.18
11241.74,-2.90
11266.58,-2.43
11291.42,-1.91
11316.26,-1.82
11341.11,-1.88
11365.95,-1.94
11390.79,-1.83
11415.63,-1.55
11440.48,-1.44
11465.32,-1.69
11490.16,-2.22
11515.00,-2.94
11539.85,-3.56
11564.69,-3.33
11589.53,-2.08
11614.37,-0.97
11639.22,-0.84
11664.06,-1.23
11688.90,-1.65
11713.74,-2.15
11738.59,-2.32
11763.43,-1.63
11788.27,-0.72
11813.12,-0.61
11837.96,-1.16
11862.80,-1.45
11887.64,-1.74
11912.49,-2.22
11937.33,-2.55
11962.17,-2.56
11987.01,-2.56
12011.86,-3.03
12036.70,-3.64
12061.54,-3.56
12086.38,-2.75
12111.23,-1.81
12136.07,-1.23
12160.91,-1.21
12185.75,-1.35
12210.60,-0.87
12235.44,0.18
12260.28,0.87
12285.12,0.71
12309.97,0.08
12334.81,-0.53
12359.65,-1.03
12384.49,-1.31
12409.34,-1.58
12434.18,-1.89
12459.02,-1.44
12483.86,-0.45
12508.71,0.10
12533.55,-0.15
12558.39,-0.59
12583.24,-0.84
12608.08,-1.10
12632.92,-1.38
12657.76,-1.65
12682.61,-2.15
12707.45,-2.57
12732.29,-2.24
12757.13,-1.50
12781.98,-0.99
12806.82,-0.28
12831.66,0.55
12856.50,0.06
12881.35,-2.23
12906.19,-3.50
12931.03,-4.76
12955.87,-5.87
12980.72,-5.45
13005.56,-4.51
13030.40,-3.98
13055.24,-3.88
13080.09,-3.74
13104.93,-3.24
13129.77,-2.24
13154.61,-0.99
13179.46,-0.25
13204.30,-0.52
13229.14,-1.60
13253.98,-2.86
13278.83,-3.39
13303.67,-2.75
13328.51,-1.65
13353.35,-0.98
13378.20,-0.71
13403.04,-0.65
13427.88,-0.59
13452.73,-0.63
13477.57,-0.59
13502.41,-0.01
13527.25,0.81
13552.10,0.95
13576.94,-0.10
13601.78,-1.79
13626.62,-2.82
13651.47,-2.44
13676.31,-1.34
13701.15,-0.89
13725.99,-1.61
13750.84,-2.73
13775.68,-3.36
13800.52,-3.51
13825.36,-3.28
13850.21,-2.29
13875.05,-1.29
13899.89,-1.45
13924.73,-1.71
13949.58,-1.98
13974.42,-1.69
13999.26,-1.54
14024.10,-2.60
14048.95,-3.80
14073.79,-3.69
14098.63,-2.75
14123.47,-2.30
14148.32,-2.48
14173.16,-2.67
14198.00,-2.53
14222.85,-2.33
14247.69,-2.48
14272.53,-2.81
14297.37,-2.89
14322.22,-2.85
14347.06,-2.98
14371.90,-3.16
14396.74,-3.24
14421.59,-3.32
14446.43,-3.48
14471.27,-3.65
14496.11,-4.07
14520.96,-4.13
14545.80,-3.74
14570.64,-3.13
14595.48,-2.47
14620.33,-1.87
14645.17,-1.45
14670.01,-1.34
14694.85,-1.62
14719.70,-2.07
14744.54,-2.60
14769.38,-3.54
14794.22,-4.74
14819.07,-5.52
14843.91,-5.71
14868.75,-5.38
14893.59,-4.43
14918.44,-3.30
14943.28,-2.98
14968.12,-2.66
14992.97,-2.41
15017.81,-2.17
15042.65,-1.89
15067.49,-1.66
15092.34,-1.48
15117.18,-1.40
15142.02,-1.61
15166.86,-2.01
15191.71,-2.38
15216.55,-3.17
15241.39,-4.59
15266.23,-5.51
15291.08,-5.15
15315.92,-4.41
15340.76,-4.02
15365.60,-3.57
15390.45,-3.03
15415.29,-3.11
15440.13,-3.80
15464.97,-3.96
15489.82,-4.12
15514.66,-3.39
15539.50,-2.00
15564.34,-0.93
15589.19,-0.59
15614.03,-0.64
15638.87,-0.93
15663.71,-1.48
15688.56,-1.85
15713.40,-1.88
15738.24,-2.22
15763.08,-3.29
15787.93,-4.22
15812.77,-4.05
15837.61,-3.14
15862.46,-2.31
15887.30,-1.50
15912.14,-0.78
15936.98,-0.73
15961.83,-1.08
15986.67,-1.04
16011.51,-1.00
16036.35,-0.31
16061.20,0.40
16086.04,0.02
16110.88,-1.65
16135.72,-3.37
16160.57,-4.15
16185.41,-4.11
16210.25,-3.66
16235.09,-2.96
16259.94,-2.14
16284.78,-1.61
16309.62,-1.59
16334.46,-1.73
16359.31,-1.83
16384.15,-2.11
16408.99,-2.23
16433.84,-1.51
16458.68,-0.48
16483.52,-0.51
16508.36,-1.12
16533.21,-1.73
16558.05,-2.90
16582.89,-3.29
16607.73,-3.26
16632.58,-3.27
16657.42,-3.29
16682.26,-3.10
16707.10,-2.71
16731.95,-2.14
16756.79,-1.77
16781.63,-2.31
16806.47,-3.50
16831.32,-3.95
16856.16,-3.40
16881.00,-2.98
16905.84,-3.00
16930.69,-2.85
16955.53,-2.79
16980.37,-3.40
17005.21,-3.84
17030.06,-4.27
17054.90,-4.41
17079.74,-3.44
17104.58,-2.25
17129.43,-1.96
17154.27,-2.24
17179.11,-2.14
17203.96,-1.80
17228.80,-1.72
17253.64,-1.61
17278.48,-1.06
17303.33,-0.37
17328.17,-0.09
17353.01,-0.31
17377.85,-0.70
17402.70,-1.13
17427.54,-1.77
17452.38,-2.38
17477.22,-2.26
17502.07,-1.11
17526.91,-0.43
17551.75,0.26
17576.59,0.59
17601.44,-0.46
17626.28,-1.74
17651.12,-2.28
17675.96,-2.59
17700.81,-3.31
17725.65,-3.86
17750.49,-3.50
17775.33,-2.65
17800.18,-2.12
17825.02,-1.76
17849.86,-0.99
17874.71,-0.15
17899.55,-0.15
17924.39,-0.99
17949.23,-1.77
17974.07,-2.14
17998.92,-2.47
18023.76,-2.53
18048.60,-2.06
18073.45,-1.58
18098.29,0.00
18123.13,6.48
18147.97,5.95
18172.82,5.67
18197.66,6.53
18222.50,7.65
18247.34,7.64
18272.19,6.28
18297.03,4.55
18321.87,3.08
18346.71,2.07
18371.56,2.01
18396.40,2.96
18421.24,3.84
18446.08,3.76
18470.93,3.34
18495.77,3.44
18520.61,3.71
18545.46,3.66
