Size (bp),Intensity
0.58,1552.27
1.00,1428.51
2.00,1045.91
2.42,617.82
2.84,307.64
3.26,145.89
3.68,81.89
4.10,61.57
4.52,56.39
4.94,55.85
5.36,56.13
5.79,55.37
6.21,52.87
6.63,50.93
7.05,48.99
7.47,43.96
7.89,37.29
8.31,29.24
8.73,21.82
9.15,16.71
9.57,13.44
9.99,11.00
10.41,9.52
10.83,9.36
11.25,10.25
11.67,11.43
12.09,11.93
12.52,11.37
12.94,10.05
13.36,8.43
13.78,7.14
14.20,6.53
14.62,6.47
15.04,7.79
15.46,12.83
15.88,23.27
16.30,37.51
16.72,49.73
17.14,51.26
17.56,52.80
17.98,44.38
18.40,29.62
18.82,16.45
19.24,9.27
19.67,6.91
20.09,5.71
20.51,4.01
20.93,2.89
21.35,3.30
21.77,4.53
22.19,5.16
22.61,4.69
23.03,3.84
23.45,3.08
23.87,2.08
24.29,0.82
24.71,-0.25
25.13,-0.87
25.55,-1.03
25.97,-1.08
26.39,-1.38
26.82,-1.56
27.24,-1.51
27.66,-1.46
28.08,-1.41
28.50,-0.89
28.92,0.07
29.34,0.63
29.76,0.45
30.18,-0.05
30.60,-0.34
31.02,-0.15
31.44,0.50
31.86,1.25
32.28,1.82
32.70,2.20
33.12,2.27
33.55,1.72
33.97,0.84
34.39,0.34
34.81,0.52
35.23,0.94
35.65,0.96
36.07,0.36
36.49,-0.31
36.91,-0.30
37.33,0.36
37.75,0.91
38.17,0.87
38.59,0.83
39.01,0.51
39.43,0.56
39.85,0.94
40.27,0.99
40.70,0.42
41.12,-0.19
41.54,-0.15
41.96,0.34
42.38,0.72
42.80,1.13
43.22,2.02
43.64,3.07
44.06,3.84
44.48,4.58
44.90,5.17
45.32,5.00
45.74,4.38
46.16,4.41
46.58,5.78
47.00,7.83
47.42,8.97
47.85,8.57
48.27,8.03
48.69,9.11
49.11,10.45
49.53,11.79
49.95,14.15
50.37,14.12
50.79,11.64
51.21,8.90
51.63,7.62
52.05,7.17
52.47,6.08
52.89,4.32
53.31,3.12
53.73,3.16
54.15,3.87
54.58,4.64
55.00,5.34
55.42,5.41
55.84,4.29
56.26,3.06
56.68,3.38
57.10,4.76
57.52,4.93
57.94,3.34
58.36,1.93
58.78,1.88
59.20,2.48
59.62,2.74
60.04,3.00
60.46,3.33
60.88,3.40
61.30,3.47
61.73,3.88
62.15,3.90
62.57,2.51
62.99,0.64
63.41,0.29
63.83,1.56
64.25,3.00
64.67,4.10
65.09,5.26
65.51,6.39
65.93,7.17
66.35,7.93
66.77,8.90
67.19,9.23
67.61,7.88
68.03,5.49
68.45,3.82
68.88,3.13
69.30,1.94
69.72,-0.27
70.14,-1.11
70.56,-1.96
70.98,-1.40
71.40,0.96
71.82,2.76
72.24,2.14
72.66,0.11
73.08,-0.68
73.50,0.37
73.92,1.69
74.34,2.46
74.76,3.15
75.18,3.72
75.61,3.52
76.03,2.85
76.45,2.53
76.87,2.34
77.29,1.90
77.71,1.71
78.13,2.23
78.55,2.83
78.97,2.57
79.39,1.45
79.81,0.48
80.23,0.35
80.65,0.43
81.07,0.25
81.49,0.06
81.91,-0.12
82.33,0.57
82.76,1.43
83.18,1.61
83.60,1.10
84.02,-0.02
84.44,-1.52
84.86,-2.39
85.28,-1.88
85.70,-0.57
86.12,0.45
86.54,0.68
86.96,0.46
87.38,0.50
87.80,0.84
88.22,1.07
88.64,1.26
89.06,1.64
89.48,1.66
89.91,0.87
90.33,0.04
90.75,0.28
91.17,1.29
91.59,1.67
92.01,2.06
92.43,2.65
92.85,3.49
93.27,3.91
93.69,3.15
94.11,1.66
94.53,0.65
94.95,0.57
95.37,0.83
95.79,1.17
96.21,1.94
96.64,2.54
97.06,2.06
97.48,0.99
97.90,0.59
98.32,1.34
98.74,2.35
99.16,2.29
99.58,1.39
100.00,1.19
101.00,2.22
101.52,3.37
102.04,3.56
102.56,2.92
103.08,2.53
103.61,2.13
104.13,1.54
104.65,1.06
105.17,0.63
105.69,0.69
106.21,1.45
106.73,2.14
107.25,2.22
107.77,2.02
108.29,2.06
108.82,2.47
109.34,2.76
109.86,2.48
110.38,2.28
110.90,2.79
111.42,3.35
111.94,3.53
112.46,3.85
112.98,4.10
113.51,3.48
114.03,2.39
114.55,1.55
115.07,0.57
115.59,-0.58
116.11,-0.74
116.63,-0.89
117.15,-0.15
117.67,0.60
118.19,0.75
118.72,0.75
119.24,1.29
119.76,2.37
120.28,3.44
120.80,3.72
121.32,2.81
121.84,1.40
122.36,0.74
122.88,0.79
123.41,0.60
123.93,0.06
124.45,0.00
124.97,0.95
125.49,2.48
126.01,4.13
126.53,5.76
127.05,6.70
127.57,6.08
128.09,4.24
128.62,2.32
129.14,1.03
129.66,0.74
130.18,0.45
130.70,0.52
131.22,1.40
131.74,3.09
132.26,4.64
132.78,4.93
133.31,4.18
133.83,3.67
134.35,3.88
134.87,3.98
135.39,3.26
135.91,2.31
136.43,2.24
136.95,3.25
137.47,4.61
137.99,5.69
138.52,6.13
139.04,5.86
139.56,5.50
140.08,5.65
140.60,5.67
141.12,4.83
141.64,3.61
142.16,2.84
142.68,2.76
143.21,2.68
143.73,3.03
144.25,3.65
144.77,4.12
145.29,4.33
145.81,4.66
146.33,5.30
146.85,6.04
147.37,6.81
147.89,7.55
148.42,7.99
148.94,8.08
149.46,8.02
149.98,8.01
150.50,7.98
151.02,7.84
151.54,8.02
152.06,9.04
152.58,10.33
153.11,10.74
153.63,10.37
154.15,10.09
154.67,10.03
155.19,10.11
155.71,10.44
156.23,10.77
156.75,12.14
157.27,13.69
157.79,14.85
158.32,15.45
158.84,15.84
159.36,16.35
159.88,16.76
160.40,16.90
160.92,17.17
161.44,17.90
161.96,18.48
162.48,18.14
163.01,17.21
163.53,16.74
164.05,17.18
164.57,17.77
165.09,17.58
165.61,17.07
166.13,17.31
166.65,18.27
167.17,19.16
167.69,19.98
168.22,21.09
168.74,21.44
169.26,21.79
169.78,21.46
170.30,21.67
170.82,23.70
171.34,26.04
171.86,27.01
172.38,27.42
172.91,28.82
173.43,31.30
173.95,33.54
174.47,34.41
174.99,34.52
175.51,35.43
176.03,37.58
176.55,40.19
177.07,42.79
177.59,45.56
178.12,48.36
178.64,50.61
179.16,52.71
179.68,55.86
180.20,60.19
180.72,65.10
181.24,70.45
181.76,75.94
182.28,78.46
182.81,80.99
183.33,85.29
183.85,88.76
184.37,92.38
184.89,98.02
185.41,106.07
185.93,115.00
186.45,123.69
186.97,131.90
187.49,139.04
188.02,144.74
188.54,149.86
189.06,155.65
189.58,161.83
190.10,167.02
190.62,170.94
191.14,174.96
191.66,180.09
192.18,185.66
192.71,190.62
193.23,195.23
193.75,200.52
194.27,206.57
194.79,212.46
195.31,215.16
195.83,217.86
196.35,223.64
196.87,230.45
197.39,237.64
197.92,244.85
198.44,253.01
198.96,262.62
199.48,272.67
200.00,282.47
201.00,292.93
201.59,305.43
202.17,320.25
202.76,336.29
203.34,352.60
203.93,369.48
204.51,387.25
205.10,404.84
205.69,420.96
206.27,436.20
206.86,451.83
207.44,467.96
208.03,483.94
208.62,499.31
209.20,514.16
209.79,521.21
210.37,528.26
210.96,540.94
211.54,553.04
212.13,566.57
212.72,581.45
213.30,595.85
213.89,609.49
214.47,623.53
215.06,638.01
215.64,652.08
216.23,665.79
216.82,679.78
217.40,693.77
217.99,707.55
218.57,722.59
219.16,740.50
219.75,760.80
220.33,781.99
220.92,804.20
221.50,828.63
222.09,855.15
222.67,881.73
223.26,905.51
223.85,924.69
224.43,939.46
225.02,945.12
225.60,950.78
226.19,959.33
226.78,966.27
227.36,973.65
227.95,983.18
228.53,995.02
229.12,1008.33
229.70,1022.71
230.29,1038.05
230.88,1054.18
231.46,1071.60
232.05,1091.18
232.63,1112.34
233.22,1133.11
233.80,1152.96
234.39,1173.67
234.98,1196.19
235.56,1219.43
236.15,1242.43
236.73,1264.16
237.32,1282.46
237.91,1296.51
238.49,1308.17
239.08,1320.00
239.66,1326.72
240.25,1333.44
240.83,1348.65
241.42,1365.27
242.01,1382.82
242.59,1401.15
243.18,1421.00
243.76,1442.45
244.35,1463.32
244.93,1480.96
245.52,1494.64
246.11,1505.47
246.69,1515.70
247.28,1526.25
247.86,1535.14
248.45,1541.04
249.04,1545.87
249.62,1551.86
250.21,1559.33
250.79,1568.02
251.38,1577.57
251.96,1586.63
252.55,1593.47
253.14,1597.63
253.72,1599.40
254.31,1599.15
254.89,1598.89
255.48,1596.77
256.07,1594.65
256.65,1593.89
257.24,1594.99
257.82,1598.10
258.41,1603.11
258.99,1609.06
259.58,1614.73
260.17,1619.49
260.75,1622.39
261.34,1621.22
261.92,1614.96
262.51,1604.73
263.09,1591.63
263.68,1576.99
264.27,1563.71
264.85,1553.78
265.44,1547.14
266.02,1544.15
266.61,1545.47
267.20,1550.19
267.78,1556.24
268.37,1561.68
268.95,1563.64
269.54,1565.61
270.12,1568.24
270.71,1569.37
271.30,1567.65
271.88,1562.30
272.47,1553.80
273.05,1542.93
273.64,1531.26
274.22,1521.88
274.81,1516.80
275.40,1515.15
275.98,1514.86
276.57,1514.41
277.15,1513.46
277.74,1513.14
278.33,1514.36
278.91,1515.65
279.50,1514.06
280.08,1507.59
280.67,1495.58
281.25,1478.95
281.84,1460.40
282.43,1442.25
283.01,1425.15
283.60,1409.56
284.18,1402.91
284.77,1396.26
285.36,1385.75
285.94,1377.93
286.53,1371.92
287.11,1367.14
287.70,1364.77
288.28,1365.79
288.87,1368.06
289.46,1367.97
290.04,1364.30
290.63,1358.53
291.21,1352.09
291.80,1345.16
292.38,1337.95
292.97,1332.09
293.56,1329.69
294.14,1330.72
294.73,1332.68
295.31,1333.25
295.90,1331.89
296.49,1329.29
297.07,1326.43
297.66,1323.70
298.24,1321.19
298.83,1320.52
299.41,1319.85
300.00,1320.64
301.00,1322.83
301.70,1324.35
302.39,1323.71
303.09,1321.23
303.79,1318.33
304.49,1316.54
305.18,1317.34
305.88,1321.60
306.58,1328.37
307.27,1335.42
307.97,1341.25
308.67,1345.13
309.37,1345.51
310.06,1341.00
310.76,1332.41
311.46,1322.19
312.15,1312.81
312.85,1305.45
313.55,1299.74
314.25,1294.98
314.94,1290.65
315.64,1285.50
316.34,1281.57
317.04,1277.63
317.73,1265.46
318.43,1248.56
319.13,1228.08
319.82,1206.76
320.52,1188.23
321.22,1174.34
321.92,1163.21
322.61,1151.74
323.31,1138.06
324.01,1121.22
324.70,1102.24
325.40,1083.85
326.10,1067.41
326.80,1052.61
327.49,1039.40
328.19,1027.09
328.89,1014.22
329.58,1000.68
330.28,987.98
330.98,977.51
331.68,969.63
332.37,963.70
333.07,959.15
333.77,957.94
334.46,956.72
335.16,957.19
335.86,959.31
336.56,960.73
337.25,959.67
337.95,954.13
338.65,943.03
339.35,928.75
340.04,915.44
340.74,905.38
341.44,898.53
342.13,894.00
342.83,891.10
343.53,889.35
344.23,888.56
344.92,888.74
345.62,889.09
346.32,887.67
347.01,882.86
347.71,874.88
348.41,865.95
349.11,858.20
349.80,851.49
350.50,844.54
351.20,837.53
351.89,834.82
352.59,832.11
353.29,829.88
353.99,831.32
354.68,835.86
355.38,842.55
356.08,849.73
356.77,854.11
357.47,852.41
358.17,844.38
358.87,833.26
359.56,823.00
360.26,815.27
360.96,809.34
361.65,803.90
362.35,797.72
363.05,790.02
363.75,782.04
364.44,775.75
365.14,770.50
365.84,764.38
366.54,758.01
367.23,753.16
367.93,749.35
368.63,745.43
369.32,743.86
370.02,742.29
370.72,741.08
371.42,740.26
372.11,736.76
372.81,729.36
373.51,719.80
374.20,710.93
374.90,703.93
375.60,697.81
376.30,691.91
376.99,687.40
377.69,684.89
378.39,682.89
379.08,680.32
379.78,678.28
380.48,678.36
381.18,680.36
381.87,682.46
382.57,683.47
383.27,683.85
383.96,684.37
384.66,685.00
385.36,684.98
386.06,683.49
386.75,682.11
387.45,680.73
388.15,678.25
388.85,677.27
389.54,677.27
390.24,676.65
390.94,673.86
391.63,668.00
392.33,659.32
393.03,649.20
393.73,639.77
394.42,632.85
395.12,628.57
395.82,625.56
396.51,622.82
397.21,620.68
397.91,620.01
398.61,621.28
399.30,624.50
400.00,629.38
401.00,635.48
401.72,642.00
402.45,647.29
403.17,649.89
403.89,650.20
404.61,649.92
405.34,649.64
406.06,649.07
406.78,649.31
407.50,651.33
408.23,655.15
408.95,660.37
409.67,667.69
410.39,677.49
411.12,687.34
411.84,693.11
412.56,691.81
413.28,682.32
414.01,665.53
414.73,644.75
415.45,624.13
416.18,605.87
416.90,589.61
417.62,574.45
418.34,560.32
419.07,547.38
419.79,535.83
420.51,525.99
421.23,518.05
421.96,511.76
422.68,506.81
423.40,504.97
424.12,503.13
424.85,500.38
425.57,497.76
426.29,494.64
427.01,491.47
427.74,489.28
428.46,488.17
429.18,487.66
429.91,487.37
430.63,486.15
431.35,482.70
432.07,477.74
432.80,473.04
433.52,468.59
434.24,463.10
434.96,456.60
435.69,450.56
436.41,446.28
437.13,444.36
437.85,444.21
438.58,444.37
439.30,444.22
440.02,444.15
440.74,444.10
441.47,443.71
442.19,443.31
442.91,441.10
443.64,437.35
444.36,432.68
445.08,428.14
445.80,424.07
446.53,419.96
447.25,415.94
447.97,412.66
448.69,409.85
449.42,407.04
450.14,405.50
450.86,407.18
451.58,412.07
452.31,418.14
453.03,423.42
453.75,427.02
454.47,428.28
455.20,426.88
455.92,423.91
456.64,421.09
457.36,418.69
458.09,415.78
458.81,412.57
459.53,411.58
460.26,410.59
460.98,409.94
461.70,408.61
462.42,405.82
463.15,403.53
463.87,403.89
464.59,406.58
465.31,409.24
466.04,409.69
466.76,406.85
467.48,400.13
468.20,389.54
468.93,377.19
469.65,366.30
470.37,358.10
471.09,352.14
471.82,348.27
472.54,346.38
473.26,346.07
473.99,346.63
474.71,347.01
475.43,347.09
476.15,347.61
476.88,348.53
477.60,349.15
478.32,348.85
479.04,348.54
479.77,345.55
480.49,340.05
481.21,333.52
481.93,327.29
482.66,321.78
483.38,316.82
484.10,311.59
484.82,305.47
485.55,298.88
486.27,292.51
486.99,287.00
487.72,283.36
488.44,281.83
489.16,281.43
489.88,281.64
490.61,282.50
491.33,283.52
492.05,284.37
492.77,285.77
493.50,288.32
494.22,290.88
494.94,291.40
495.66,289.35
496.39,287.62
497.11,285.90
497.83,282.07
498.55,277.63
499.28,271.86
500.00,265.70
501.00,261.40
502.01,259.61
503.02,258.85
504.03,258.32
505.04,258.34
506.05,258.39
507.06,257.35
508.07,255.42
509.08,253.91
510.09,253.19
511.10,252.42
512.11,251.00
513.12,249.21
514.13,247.68
515.14,246.82
516.15,246.00
517.16,244.18
518.17,241.70
519.18,239.69
520.19,238.88
521.20,238.08
522.21,235.71
523.22,231.93
524.23,227.66
525.24,224.41
526.26,222.63
527.27,221.76
528.28,221.24
529.29,220.48
530.30,218.90
531.31,216.41
532.32,213.46
533.33,210.62
534.34,207.83
535.35,204.63
536.36,200.99
537.37,197.32
538.38,194.47
539.39,193.49
540.40,194.21
541.41,194.92
542.42,194.33
543.43,193.07
544.44,192.48
545.45,192.40
546.46,192.33
547.47,191.50
548.48,190.32
549.49,189.32
550.50,187.73
551.51,185.33
552.52,183.60
553.53,183.58
554.54,184.14
555.55,183.99
556.56,183.87
557.57,185.05
558.58,186.89
559.59,187.60
560.60,186.70
561.61,186.00
562.62,187.18
563.63,189.23
564.64,190.30
565.65,190.49
566.66,190.76
567.67,190.97
568.68,190.28
569.69,188.11
570.70,184.60
571.71,182.71
572.72,180.81
573.73,178.21
574.74,177.32
575.76,177.00
576.77,175.80
577.78,173.50
578.79,170.67
579.80,167.62
580.81,164.38
581.82,161.05
582.83,158.20
583.84,156.34
584.85,155.38
585.86,154.95
586.87,155.12
587.88,155.81
588.89,156.47
589.90,157.01
590.91,157.58
591.92,157.74
592.93,156.87
593.94,155.14
594.95,153.77
595.96,153.65
596.97,153.72
597.98,153.79
598.99,152.75
600.00,151.02
601.00,150.07
602.18,149.89
603.36,149.20
604.54,147.44
605.71,145.27
606.89,143.42
608.07,142.14
609.25,142.19
610.43,144.10
611.61,146.58
612.79,148.15
613.96,149.29
615.14,150.84
616.32,152.19
617.50,152.44
618.68,151.64
619.86,150.00
621.04,147.43
622.21,144.21
623.39,141.28
624.57,139.06
625.75,138.03
626.93,136.99
628.11,134.73
629.29,133.00
630.46,132.14
631.64,131.09
632.82,128.78
634.00,125.88
635.18,123.79
636.36,122.76
637.54,122.33
638.71,122.36
639.89,122.41
641.07,121.68
642.25,120.30
643.43,119.07
644.61,118.48
645.79,118.84
646.96,119.80
648.14,119.73
649.32,117.84
650.50,115.50
651.68,113.86
652.86,112.49
654.04,110.98
655.21,110.46
656.39,109.94
657.57,109.90
658.75,110.43
659.93,110.76
661.11,110.77
662.29,110.90
663.46,111.20
664.64,111.41
665.82,111.80
667.00,112.60
668.18,112.87
669.36,111.67
670.54,110.05
671.71,109.79
672.89,110.36
674.07,109.54
675.25,106.90
676.43,104.48
677.61,103.75
678.79,103.74
679.96,103.29
681.14,103.12
682.32,103.71
683.50,103.70
684.68,102.25
685.86,101.25
687.04,100.25
688.21,98.58
689.39,97.43
690.57,96.95
691.75,96.60
692.93,94.99
694.11,92.11
695.29,89.89
696.46,89.54
697.64,89.99
698.82,90.08
700.00,89.66
701.00,88.68
702.98,87.28
704.96,86.00
706.94,84.96
708.92,84.26
710.90,84.29
712.88,84.77
714.86,84.98
716.84,84.56
718.82,83.31
720.80,81.58
722.78,80.41
724.76,80.25
726.74,80.09
728.72,79.72
730.70,78.79
732.68,77.57
734.66,76.39
736.64,75.32
738.62,74.23
740.60,73.28
742.58,73.11
744.56,73.90
746.54,74.88
748.52,75.17
750.50,74.47
752.48,73.40
754.46,72.90
756.44,73.08
758.42,73.00
760.40,72.27
762.38,71.78
764.36,72.28
766.34,73.49
768.32,74.84
770.30,75.58
772.28,74.96
774.26,74.23
776.24,73.51
778.22,72.29
780.20,71.63
782.18,71.72
784.16,72.31
786.14,72.01
788.12,70.24
790.10,68.05
792.08,66.87
794.06,67.27
796.04,68.35
798.02,68.26
800.00,66.61
801.00,65.30
803.36,65.79
805.71,67.07
808.07,67.39
810.43,66.30
812.79,64.24
815.14,61.69
817.50,59.58
819.86,58.98
822.21,59.56
824.57,59.91
826.93,59.25
829.29,58.69
831.64,58.12
834.00,57.42
836.36,57.52
838.71,58.01
841.07,58.28
843.43,58.12
845.79,57.74
848.14,57.15
850.50,56.23
852.86,55.39
855.21,54.94
857.57,54.15
859.93,52.67
862.29,51.47
864.64,50.98
867.00,50.34
869.36,49.19
871.71,48.22
874.07,47.81
876.43,47.25
878.79,46.06
881.14,45.02
883.50,44.96
885.86,45.37
888.21,45.33
890.57,45.29
892.93,44.70
895.29,44.06
897.64,43.45
900.00,43.10
901.00,43.29
904.67,43.20
908.33,41.75
912.00,39.82
915.67,39.08
919.33,39.41
923.00,39.58
926.67,39.04
930.33,38.08
934.00,37.27
937.67,36.66
941.33,35.68
945.00,34.27
948.67,33.27
952.33,33.24
956.00,33.36
959.67,32.55
963.33,31.29
967.00,30.62
970.67,30.47
974.33,30.31
978.00,29.38
981.67,27.71
985.33,26.28
989.00,25.69
992.67,25.60
996.33,25.89
1000.00,26.64
1001.00,27.11
1006.10,26.45
1011.21,24.81
1016.31,23.05
1021.41,21.90
1026.51,21.46
1031.62,21.33
1036.72,21.14
1041.82,20.95
1046.92,21.03
1052.03,21.42
1057.13,21.47
1062.23,20.57
1067.33,19.20
1072.44,18.46
1077.54,18.55
1082.64,18.70
1087.74,18.86
1092.85,19.09
1097.95,19.25
1103.05,19.13
1108.15,19.01
1113.26,19.22
1118.36,19.15
1123.46,18.03
1128.56,16.08
1133.67,14.43
1138.77,13.82
1143.87,13.72
1148.97,13.44
1154.08,13.21
1159.18,13.29
1164.28,13.39
1169.38,12.88
1174.49,11.60
1179.59,10.56
1184.69,10.39
1189.79,10.18
1194.90,9.43
1200.00,9.12
1201.00,9.91
1210.06,11.12
1219.12,11.32
1228.18,11.53
1237.24,10.83
1246.30,10.05
1255.36,10.04
1264.42,10.19
1273.48,9.53
1282.55,8.26
1291.61,6.96
1300.67,5.81
1309.73,5.14
1318.79,5.38
1327.85,6.04
1336.91,6.36
1345.97,6.33
1355.03,6.03
1364.09,5.25
1373.15,4.75
1382.21,5.63
1391.27,7.18
1400.33,7.59
1409.39,6.58
1418.45,5.40
1427.52,4.73
1436.58,4.11
1445.64,3.61
1454.70,3.12
1463.76,2.45
1472.82,3.30
1481.88,5.30
1490.94,6.59
1500.00,6.51
1501.00,6.22
1510.24,6.18
1519.48,5.70
1528.72,4.73
1537.96,3.88
1547.20,3.16
1556.44,2.42
1565.69,1.53
1574.93,0.15
1584.17,-1.33
1593.41,-1.69
1602.65,-0.73
1611.89,0.60
1621.13,1.84
1630.37,3.11
1639.61,3.99
1648.85,3.85
1658.09,3.31
1667.33,3.37
1676.57,3.42
1685.81,3.87
1695.06,3.48
1704.30,1.88
1713.54,-0.09
1722.78,-0.74
1732.02,0.87
1741.26,3.52
1750.50,4.83
1759.74,4.04
1768.98,2.53
1778.22,1.80
1787.46,2.12
1796.70,3.26
1805.94,5.06
1815.19,6.72
1824.43,7.09
1833.67,5.94
1842.91,4.16
1852.15,2.99
1861.39,3.04
1870.63,3.84
1879.87,4.90
1889.11,5.98
1898.35,6.10
1907.59,6.22
1916.83,5.38
1926.07,5.16
1935.31,6.50
1944.56,7.73
1953.80,7.38
1963.04,5.93
1972.28,4.61
1981.52,4.07
1990.76,4.15
2000.00,4.29
2001.00,4.27
2018.22,4.19
2035.45,4.29
2052.67,5.00
2069.90,6.36
2087.12,7.30
2104.34,6.76
2121.57,5.31
2138.79,4.50
2156.02,4.70
2173.24,4.78
2190.47,3.99
2207.69,2.71
2224.91,1.67
2242.14,1.40
2259.36,1.12
2276.59,1.02
2293.81,1.49
2311.03,2.47
2328.26,3.14
2345.48,2.88
2362.71,1.76
2379.93,0.17
2397.16,-1.26
2414.38,-1.77
2431.60,-1.04
2448.83,0.44
2466.05,1.50
2483.28,1.27
2500.50,0.09
2517.72,-0.75
2534.95,-0.67
2552.17,-0.30
2569.40,0.03
2586.62,0.86
2603.84,2.24
2621.07,3.54
2638.29,4.41
2655.52,4.51
2672.74,3.95
2689.97,3.39
2707.19,1.69
2724.41,1.07
2741.64,1.98
2758.86,3.09
2776.09,3.39
2793.31,3.08
2810.53,2.40
2827.76,1.42
2844.98,0.88
2862.21,1.38
2879.43,2.09
2896.66,1.73
2913.88,0.55
2931.10,-0.23
2948.33,-0.05
2965.55,0.74
2982.78,1.63
3000.00,2.31
3001.00,2.45
3025.99,2.05
3050.98,1.56
3075.98,0.97
3100.97,0.25
3125.96,0.36
3150.95,0.46
3175.94,1.82
3200.93,2.73
3225.93,2.58
3250.92,2.62
3275.91,3.29
3300.90,3.53
3325.89,3.05
3350.88,3.13
3375.87,4.11
3400.87,4.50
3425.86,3.52
3450.85,1.96
3475.84,0.78
3500.83,0.32
3525.82,0.34
3550.82,0.23
3575.81,-0.04
3600.80,0.33
3625.79,1.46
3650.78,2.28
3675.77,2.50
3700.77,2.68
3725.76,2.75
3750.75,2.81
3775.74,3.16
3800.73,3.51
3825.73,4.37
3850.72,4.30
3875.71,3.39
3900.70,2.54
3925.69,1.82
3950.68,0.99
3975.68,0.36
4000.67,0.20
4025.66,0.11
4050.65,-0.03
4075.64,0.26
4100.63,1.31
4125.62,2.48
4150.62,2.63
4175.61,1.77
4200.60,0.97
4225.59,0.60
4250.58,0.51
4275.58,0.73
4300.57,1.27
4325.56,1.93
4350.55,2.45
4375.54,2.73
4400.53,2.75
4425.52,2.77
4450.52,2.15
4475.51,0.78
4500.50,-0.14
4525.49,0.39
4550.48,1.27
4575.48,0.89
4600.47,-0.34
4625.46,-0.79
4650.45,0.07
4675.44,1.51
4700.43,2.63
4725.42,2.71
4750.42,1.81
4775.41,1.17
4800.40,1.88
4825.39,3.51
4850.38,4.97
4875.37,5.69
4900.37,5.63
4925.36,4.71
4950.35,3.06
4975.34,1.93
5000.33,2.76
5025.33,3.98
5050.32,5.20
5075.31,7.83
5100.30,9.69
5125.29,10.31
5150.28,10.30
5175.27,10.94
5200.27,11.95
5225.26,11.87
5250.25,10.47
5275.24,8.93
5300.23,8.24
5325.23,7.95
5350.22,7.02
5375.21,5.63
5400.20,4.76
5425.19,4.59
5450.18,4.66
5475.17,4.79
5500.17,4.92
5525.16,4.71
5550.15,4.18
5575.14,3.93
5600.13,4.19
5625.12,4.74
5650.12,5.48
5675.11,6.23
5700.10,10.90
5725.09,23.77
5750.08,57.04
5775.08,134.31
5800.07,285.86
5825.06,534.14
5850.05,877.93
5875.04,1285.61
5900.03,1700.70
5925.02,2052.68
5950.02,2269.49
5975.01,2297.67
6000.00,2126.88
6024.79,1799.32
6049.64,1392.11
6074.48,986.49
6099.32,642.51
6124.16,387.01
6149.01,217.48
6173.85,116.02
6198.69,61.30
6223.53,34.37
6248.38,21.56
6273.22,15.24
6298.06,13.55
6322.90,11.87
6347.75,9.90
6372.59,8.39
6397.43,6.52
6422.27,4.29
6447.12,2.34
6471.96,1.00
6496.80,0.62
6521.65,1.62
6546.49,3.35
6571.33,4.12
6596.17,2.99
6621.02,0.81
6645.86,-0.81
6670.70,-1.51
6695.54,-2.18
6720.39,-2.87
6745.23,-2.79
6770.07,-1.93
6794.91,-1.13
6819.76,-0.92
6844.60,-1.29
6869.44,-2.14
6894.28,-3.23
6919.13,-3.60
6943.97,-3.96
6968.81,-3.83
6993.65,-2.81
7018.50,-1.58
7043.34,-1.38
7068.18,-2.60
7093.02,-3.83
7117.87,-4.03
7142.71,-3.99
7167.55,-4.49
7192.39,-4.87
7217.24,-4.59
7242.08,-4.10
7266.92,-3.78
7291.77,-3.48
7316.61,-3.46
7341.45,-4.10
7366.29,-4.78
7391.14,-4.93
7415.98,-4.85
7440.82,-4.31
7465.66,-2.79
7490.51,-1.15
7515.35,-0.77
7540.19,-1.26
7565.03,-1.75
7589.88,-3.18
7614.72,-4.24
7639.56,-4.49
7664.40,-4.19
7689.25,-4.34
7714.09,-5.24
7738.93,-5.75
7763.77,-5.18
7788.62,-4.18
7813.46,-3.14
7838.30,-2.25
7863.14,-2.28
7887.99,-3.36
7912.83,-4.53
7937.67,-5.00
7962.51,-4.49
7987.36,-3.19
8012.20,-2.09
8037.04,-2.32
8061.89,-3.94
8086.73,-5.91
8111.57,-6.70
8136.41,-5.43
8161.26,-4.19
8186.10,-2.94
8210.94,-0.80
8235.78,0.41
8260.63,0.59
8285.47,-0.22
8310.31,-1.33
8335.15,-2.21
8360.00,-3.08
8384.84,-3.89
8409.68,-4.28
8434.52,-4.49
8459.37,-4.80
8484.21,-4.70
8509.05,-4.20
8533.89,-4.36
8558.74,-5.55
8583.58,-6.56
8608.42,-6.48
8633.26,-5.80
8658.11,-5.22
8682.95,-4.84
8707.79,-4.90
8732.63,-5.28
8757.48,-5.03
8782.32,-3.96
8807.16,-3.56
8832.00,-3.16
8856.85,-3.05
8881.69,-3.14
8906.53,-3.23
8931.37,-3.42
8956.22,-3.94
8981.06,-5.01
9005.90,-6.29
9030.75,-6.61
9055.59,-5.43
9080.43,-3.98
9105.27,-3.86
9130.12,-5.06
9154.96,-6.07
9179.80,-5.91
9204.64,-5.03
9229.49,-4.09
9254.33,-3.19
9279.17,-2.75
9304.01,-3.37
9328.86,-4.57
9353.70,-4.91
9378.54,-3.77
9403.38,-2.17
9428.23,-1.96
9453.07,-1.74
9477.91,-2.99
9502.75,-4.53
9527.60,-4.60
9552.44,-3.51
9577.28,-2.97
9602.12,-3.04
9626.97,-2.48
9651.81,-1.66
9676.65,-1.97
9701.50,-3.23
9726.34,-3.99
9751.18,-3.74
9776.02,-3.50
9800.87,-3.87
9825.71,-4.24
9850.55,-4.55
9875.39,-5.48
9900.24,-6.82
9925.08,-7.25
9949.92,-6.08
9974.76,-4.37
9999.61,-3.76
10024.45,-4.52
10049.29,-5.10
10074.13,-5.68
10098.98,-6.18
10123.82,-5.53
10148.66,-4.39
10173.50,-3.89
10198.35,-4.16
10223.19,-4.49
10248.03,-4.45
10272.87,-3.98
10297.72,-3.10
10322.56,-2.33
10347.40,-2.09
10372.25,-1.96
10397.09,-1.47
10421.93,-0.83
10446.77,-0.37
10471.62,-0.19
10496.46,-0.47
10521.30,-1.40
10546.14,-2.41
10570.99,-2.47
10595.83,-1.76
10620.67,-1.46
10645.51,-1.86
10670.36,-2.33
10695.20,-2.33
10720.04,-2.32
10744.88,-1.80
10769.73,-1.27
10794.57,-1.17
10819.41,-1.37
10844.25,-1.85
10869.10,-2.72
10893.94,-3.14
10918.78,-2.35
10943.62,-1.35
10968.47,-1.36
10993.31,-2.01
11018.15,-2.16
11043.00,-1.61
11067.84,-1.20
11092.68,-1.17
11117.52,-0.61
11142.37,0.56
11167.21,1.00
11192.05,-0.23
11216.89,-2.61
11241.74,-4.95
11266.58,-6.07
11291.42,-5.63
11316.26,-5.07
11341.11,-4.52
11365.95,-3.72
11390.79,-3.32
11415.63,-2.96
11440.48,-2.53
11465.32,-2.39
11490.16,-2.72
11515.00,-3.03
11539.85,-2.65
11564.69,-1.91
11589.53,-1.58
11614.37,-1.52
11639.22,-1.21
11664.06,-0.88
11688.90,-0.92
11713.74,-1.12
11738.59,-0.90
11763.43,-0.36
11788.27,-0.44
11813.12,-1.25
11837.96,-1.63
11862.80,-1.16
11887.64,-0.75
11912.49,-1.01
11937.33,-1.33
11962.17,-1.65
11987.01,-2.20
12011.86,-2.45
12036.70,-2.38
12061.54,-2.08
12086.38,-1.36
12111.23,-0.06
12136.07,1.10
12160.91,1.01
12185.75,-0.40
12210.60,-2.21
12235.44,-3.44
12260.28,-3.83
12285.12,-4.00
12309.97,-4.44
12334.81,-4.67
12359.65,-4.00
12384.49,-2.71
12409.34,-1.99
12434.18,-2.58
12459.02,-3.90
12483.86,-4.82
12508.71,-5.10
12533.55,-5.39
12558.39,-5.59
12583.24,-5.79
12608.08,-5.71
12632.92,-4.97
12657.76,-3.61
12682.61,-1.79
12707.45,-0.72
12732.29,-1.31
12757.13,-2.39
12781.98,-2.52
12806.82,-2.13
12831.66,-2.00
12856.50,-1.85
12881.35,-1.33
12906.19,-0.89
12931.03,-1.28
12955.87,-2.51
12980.72,-3.66
13005.56,-4.08
13030.40,-3.90
13055.24,-3.54
13080.09,-3.59
13104.93,-4.12
13129.77,-4.01
13154.61,-2.85
13179.46,-1.80
13204.30,-1.70
13229.14,-1.60
13253.98,-1.99
13278.83,-2.83
13303.67,-4.21
13328.51,-5.65
13353.35,-6.05
13378.20,-5.00
13403.04,-3.43
13427.88,-2.49
13452.73,-2.50
13477.57,-3.14
13502.41,-3.68
13527.25,-3.53
13552.10,-2.64
13576.94,-1.37
13601.78,-0.41
13626.62,-0.28
13651.47,-1.06
13676.31,-2.56
13701.15,-4.05
13725.99,-4.61
13750.84,-4.07
13775.68,-2.88
13800.52,-1.36
13825.36,-0.67
13850.21,0.02
13875.05,0.80
13899.89,1.15
13924.73,1.11
13949.58,0.16
13974.42,-1.48
13999.26,-2.24
14024.10,-0.97
14048.95,1.29
14073.79,2.28
14098.63,1.14
14123.47,-0.76
14148.32,-1.46
14173.16,-0.49
14198.00,0.63
14222.85,0.35
14247.69,-0.66
14272.53,-0.86
14297.37,-0.53
14322.22,-0.76
14347.06,-1.10
14371.90,-0.95
14396.74,-1.09
14421.59,-1.52
14446.43,-1.35
14471.27,-1.17
14496.11,-0.45
14520.96,-0.65
14545.80,-1.65
14570.64,-2.81
14595.48,-4.15
14620.33,-5.12
14645.17,-4.91
14670.01,-4.26
14694.85,-4.54
14719.70,-5.68
14744.54,-6.80
14769.38,-7.42
14794.22,-7.21
14819.07,-6.14
14843.91,-4.86
14868.75,-3.99
14893.59,-3.57
14918.44,-3.41
14943.28,-3.65
14968.12,-4.34
14992.97,-4.96
15017.81,-4.86
15042.65,-3.82
15067.49,-3.24
15092.34,-2.65
15117.18,-2.81
15142.02,-4.50
15166.86,-5.82
15191.71,-5.44
15216.55,-4.45
15241.39,-4.40
15266.23,-4.91
15291.08,-4.77
15315.92,-4.08
15340.76,-3.71
15365.60,-3.60
15390.45,-3.24
15415.29,-2.90
15440.13,-3.01
15464.97,-3.39
15489.82,-3.83
15514.66,-4.21
15539.50,-4.29
15564.34,-3.67
15589.19,-2.78
15614.03,-2.63
15638.87,-2.94
15663.71,-2.47
15688.56,-1.46
15713.40,-1.27
15738.24,-1.07
15763.08,-1.44
15787.93,-2.01
15812.77,-2.43
15837.61,-2.77
15862.46,-3.13
15887.30,-3.25
15912.14,-3.16
15936.98,-3.44
15961.83,-4.06
15986.67,-4.32
16011.51,-4.08
16036.35,-3.64
16061.20,-3.03
16086.04,-2.59
16110.88,-2.88
16135.72,-3.55
16160.57,-3.60
16185.41,-2.82
16210.25,-2.05
16235.09,-2.29
16259.94,-3.54
16284.78,-4.74
16309.62,-4.95
16334.46,-4.61
16359.31,-4.28
16384.15,-3.55
16408.99,-3.08
16433.84,-2.22
16458.68,-0.84
16483.52,0.15
16508.36,0.16
16533.21,-0.68
16558.05,-2.02
16582.89,-3.36
16607.73,-4.17
16632.58,-4.18
16657.42,-3.57
16682.26,-2.99
16707.10,-2.87
16731.95,-2.63
16756.79,-1.80
16781.63,-1.37
16806.47,-1.85
16831.32,-1.74
16856.16,-0.36
16881.00,0.69
16905.84,0.43
16930.69,-0.43
16955.53,-0.92
16980.37,-1.41
17005.21,-2.56
17030.06,-3.47
17054.90,-3.85
17079.74,-3.83
17104.58,-3.13
17129.43,-1.47
17154.27,0.00
17179.11,0.00
17203.96,0.00
17228.80,0.00
17253.64,0.00
17278.48,0.00
17303.33,0.00
17328.17,0.00
17353.01,0.00
17377.85,0.00
17402.70,0.00
17427.54,0.00
17452.38,0.00
17477.22,0.00
17502.07,0.00
17526.91,0.00
17551.75,0.00
17576.59,0.00
17601.44,0.00
17626.28,0.00
17651.12,0.00
17675.96,0.00
17700.81,0.00
17725.65,0.00
17750.49,0.00
17775.33,0.58
17800.18,1.75
17825.02,2.75
17849.86,2.87
17874.71,2.16
17899.55,1.52
17924.39,1.66
17949.23,2.33
17974.07,2.89
17998.92,2.85
18023.76,2.28
18048.60,1.55
18073.45,0.90
18098.29,0.56
18123.13,0.71
18147.97,1.04
18172.82,1.24
18197.66,1.02
18222.50,0.51
18247.34,0.00
18272.19,0.00
18297.03,0.00
18321.87,0.00
18346.71,0.00
18371.56,0.00
18396.40,0.00
18421.24,0.00
18446.08,0.00
18470.93,0.00
18495.77,0.00
18520.61,0.00
18545.46,0.00
